Wavenumber,Intensity
650.4205,0.157044
652.2841,0.154897
654.1478,0.156237
656.0115,0.154620
657.8751,0.152299
659.7388,0.152882
661.6025,0.154192
663.4661,0.152151
665.3298,0.148796
667.1935,0.148193
669.0571,0.151100
670.9208,0.150006
672.7845,0.149308
674.6481,0.147815
676.5118,0.146227
678.3755,0.144678
680.2392,0.145009
682.1028,0.144912
683.9665,0.144316
685.8302,0.143569
687.6938,0.143847
689.5575,0.144946
691.4212,0.145813
693.2848,0.145224
695.1485,0.145493
697.0122,0.146904
698.8758,0.148568
700.7395,0.148932
702.6032,0.150093
704.4669,0.150079
706.3305,0.148665
708.1942,0.146296
710.0579,0.143961
711.9215,0.141359
713.7852,0.138687
715.6489,0.135811
717.5125,0.133209
719.3762,0.130317
721.2399,0.127753
723.1035,0.125096
724.9672,0.122118
726.8309,0.119618
728.6945,0.118024
730.5582,0.116717
732.4219,0.116426
734.2856,0.115747
736.1492,0.114388
738.0129,0.113910
739.8766,0.114342
741.7402,0.115379
743.6039,0.116104
745.4676,0.115648
747.3312,0.115495
749.1949,0.116458
751.0586,0.117978
752.9222,0.119119
754.7859,0.120440
756.6496,0.121326
758.5132,0.122450
760.3769,0.123246
762.2406,0.122851
764.1043,0.121575
765.9679,0.120123
767.8316,0.118052
769.6953,0.115424
771.5589,0.112496
773.4226,0.109571
775.2863,0.106755
777.1499,0.104278
779.0136,0.101982
780.8773,0.100097
782.7409,0.098867
784.6046,0.098082
786.4683,0.097467
788.3320,0.097005
790.1956,0.096275
792.0593,0.095876
793.9230,0.095664
795.7866,0.095135
797.6503,0.094309
799.5140,0.093685
801.3776,0.093423
803.2413,0.093029
805.1050,0.092341
806.9686,0.091933
808.8323,0.091540
810.6960,0.091016
812.5596,0.090598
814.4233,0.090598
816.2870,0.090559
818.1507,0.090605
820.0143,0.090620
821.8780,0.090826
823.7417,0.091605
825.6053,0.092798
827.4690,0.094179
829.3327,0.095571
831.1963,0.096384
833.0600,0.096692
834.9237,0.096863
836.7873,0.097688
838.6510,0.098709
840.5147,0.099719
842.3784,0.101002
844.2420,0.102253
846.1057,0.103512
847.9694,0.104766
849.8330,0.105707
851.6967,0.106657
853.5604,0.107887
855.4240,0.109476
857.2877,0.110550
859.1514,0.110596
861.0150,0.109737
862.8787,0.107964
864.7424,0.105071
866.6060,0.101606
868.4697,0.098211
870.3334,0.095109
872.1971,0.092211
874.0607,0.090124
875.9244,0.089013
877.7881,0.088682
879.6517,0.089173
881.5154,0.090361
883.3791,0.091838
885.2427,0.093653
887.1064,0.095781
888.9701,0.098235
890.8337,0.100774
892.6974,0.103126
894.5611,0.104977
896.4247,0.106451
898.2884,0.108100
900.1521,0.110280
902.0158,0.112537
903.8794,0.114851
905.7431,0.117492
907.6068,0.120393
909.4704,0.123307
911.3341,0.126617
913.1978,0.130196
915.0614,0.133374
916.9251,0.135182
918.7888,0.135683
920.6524,0.135999
922.5161,0.136619
924.3798,0.137135
926.2435,0.137480
928.1071,0.137701
929.9708,0.137737
931.8345,0.137664
933.6981,0.137392
935.5618,0.136569
937.4255,0.135184
939.2891,0.133364
941.1528,0.131724
943.0165,0.130705
944.8801,0.130680
946.7438,0.131756
948.6075,0.134095
950.4711,0.137351
952.3348,0.141418
954.1985,0.146573
956.0622,0.152437
957.9258,0.158431
959.7895,0.164611
961.6532,0.171069
963.5168,0.178100
965.3805,0.185792
967.2442,0.194203
969.1078,0.203173
970.9715,0.212929
972.8352,0.223561
974.6988,0.234929
976.5625,0.246881
978.4262,0.259992
980.2899,0.273415
982.1535,0.283647
984.0172,0.287536
985.8809,0.288759
987.7445,0.291340
989.6082,0.294569
991.4719,0.296871
993.3355,0.297829
995.1992,0.297387
997.0629,0.296148
998.9265,0.293886
1000.7902,0.290705
1002.6539,0.287171
1004.5175,0.284330
1006.3812,0.282096
1008.2449,0.280098
1010.1086,0.277854
1011.9722,0.274823
1013.8359,0.270829
1015.6996,0.265769
1017.5632,0.259387
1019.4269,0.252223
1021.2906,0.244745
1023.1542,0.237138
1025.0179,0.229176
1026.8816,0.221342
1028.7452,0.214039
1030.6089,0.207371
1032.4726,0.201422
1034.3362,0.196439
1036.1999,0.192791
1038.0636,0.190212
1039.9273,0.187877
1041.7909,0.185436
1043.6546,0.182427
1045.5183,0.178393
1047.3819,0.173233
1049.2456,0.166897
1051.1093,0.159099
1052.9729,0.150419
1054.8366,0.141918
1056.7003,0.134323
1058.5639,0.127793
1060.4276,0.122261
1062.2913,0.117942
1064.1550,0.115631
1066.0186,0.116447
1067.8823,0.121528
1069.7460,0.130581
1071.6096,0.141421
1073.4733,0.150556
1075.3370,0.155164
1077.2006,0.154700
1079.0643,0.150532
1080.9280,0.144404
1082.7916,0.137435
1084.6553,0.130527
1086.5190,0.124325
1088.3826,0.118718
1090.2463,0.114007
1092.1100,0.110671
1093.9737,0.108831
1095.8373,0.108448
1097.7010,0.109204
1099.5647,0.110414
1101.4283,0.111517
1103.2920,0.111812
1105.1557,0.110888
1107.0193,0.108822
1108.8830,0.105891
1110.7467,0.102658
1112.6103,0.099594
1114.4740,0.097067
1116.3377,0.095440
1118.2014,0.094549
1120.0650,0.094205
1121.9287,0.094187
1123.7924,0.094083
1125.6560,0.093594
1127.5197,0.092544
1129.3834,0.091345
1131.2470,0.090794
1133.1107,0.091230
1134.9744,0.092975
1136.8380,0.096150
1138.7017,0.100308
1140.5654,0.104854
1142.4290,0.109239
1144.2927,0.112792
1146.1564,0.114938
1148.0201,0.115526
1149.8837,0.114618
1151.7474,0.112142
1153.6111,0.108217
1155.4747,0.103134
1157.3384,0.097073
1159.2021,0.090229
1161.0657,0.082864
1162.9294,0.075465
1164.7931,0.068662
1166.6567,0.062593
1168.5204,0.057340
1170.3841,0.053012
1172.2477,0.049544
1174.1114,0.046670
1175.9751,0.044242
1177.8388,0.042357
1179.7024,0.041015
1181.5661,0.040207
1183.4298,0.039995
1185.2934,0.040234
1187.1571,0.040800
1189.0208,0.041690
1190.8844,0.042696
1192.7481,0.043593
1194.6118,0.044332
1196.4754,0.045078
1198.3391,0.045950
1200.2028,0.046826
1202.0665,0.047628
1203.9301,0.048251
1205.7938,0.048580
1207.6575,0.048618
1209.5211,0.048521
1211.3848,0.048417
1213.2485,0.048306
1215.1121,0.048199
1216.9758,0.048328
1218.8395,0.048813
1220.7031,0.049465
1222.5668,0.050231
1224.4305,0.051070
1226.2941,0.051879
1228.1578,0.052616
1230.0215,0.053318
1231.8852,0.054003
1233.7488,0.054671
1235.6125,0.055319
1237.4762,0.055832
1239.3398,0.056244
1241.2035,0.056557
1243.0672,0.056625
1244.9308,0.056506
1246.7945,0.056283
1248.6582,0.056097
1250.5218,0.056003
1252.3855,0.055837
1254.2492,0.055698
1256.1129,0.055755
1257.9765,0.055947
1259.8402,0.056222
1261.7039,0.056508
1263.5675,0.056732
1265.4312,0.056874
1267.2949,0.056841
1269.1585,0.056726
1271.0222,0.056851
1272.8859,0.057205
1274.7495,0.057698
1276.6132,0.058439
1278.4769,0.059374
1280.3405,0.060397
1282.2042,0.061502
1284.0679,0.062683
1285.9316,0.063766
1287.7952,0.064601
1289.6589,0.065349
1291.5226,0.066123
1293.3862,0.066822
1295.2499,0.067652
1297.1136,0.068794
1298.9772,0.070130
1300.8409,0.071574
1302.7046,0.073067
1304.5682,0.074232
1306.4319,0.074433
1308.2956,0.073343
1310.1592,0.071316
1312.0229,0.069479
1313.8866,0.068636
1315.7503,0.068660
1317.6139,0.069354
1319.4776,0.070459
1321.3413,0.071472
1323.2049,0.072488
1325.0686,0.073686
1326.9323,0.075107
1328.7959,0.076609
1330.6596,0.077723
1332.5233,0.078262
1334.3869,0.078417
1336.2506,0.078501
1338.1143,0.078895
1339.9780,0.079341
1341.8416,0.078718
1343.7053,0.077507
1345.5690,0.076687
1347.4326,0.076349
1349.2963,0.076345
1351.1600,0.076405
1353.0236,0.076407
1354.8873,0.076462
1356.7510,0.076444
1358.6146,0.076285
1360.4783,0.076377
1362.3420,0.076873
1364.2056,0.076618
1366.0693,0.075733
1367.9330,0.075532
1369.7967,0.075238
1371.6603,0.074507
1373.5240,0.074568
1375.3877,0.074868
1377.2513,0.074335
1379.1150,0.073962
1380.9787,0.073672
1382.8423,0.073020
1384.7060,0.072522
1386.5697,0.072898
1388.4333,0.073600
1390.2970,0.073419
1392.1607,0.073466
1394.0244,0.074439
1395.8880,0.075131
1397.7517,0.074797
1399.6154,0.074299
1401.4790,0.073403
1403.3427,0.072920
1405.2064,0.072781
1407.0700,0.071431
1408.9337,0.069445
1410.7974,0.067713
1412.6610,0.066299
1414.5247,0.065139
1416.3884,0.064752
1418.2520,0.066044
1420.1157,0.067575
1421.9794,0.066916
1423.8431,0.065834
1425.7067,0.063958
1427.5704,0.061702
1429.4341,0.060205
1431.2977,0.059014
1433.1614,0.057885
1435.0251,0.057752
1436.8887,0.059038
1438.7524,0.058960
1440.6161,0.057952
1442.4797,0.057728
1444.3434,0.057642
1446.2071,0.057814
1448.0707,0.058652
1449.9344,0.058802
1451.7981,0.058046
1453.6618,0.057169
1455.5254,0.057142
1457.3891,0.059480
1459.2528,0.059378
1461.1164,0.057164
1462.9801,0.055737
1464.8438,0.054773
1466.7074,0.052734
1468.5711,0.050096
1470.4348,0.048209
1472.2984,0.047320
1474.1621,0.046292
1476.0258,0.045082
1477.8895,0.044104
1479.7531,0.043407
1481.6168,0.043121
1483.4805,0.042723
1485.3441,0.042266
1487.2078,0.042269
1489.0715,0.042865
1490.9351,0.043235
1492.7988,0.042512
1494.6625,0.042194
1496.5261,0.043107
1498.3898,0.043841
1500.2535,0.043561
1502.1171,0.042785
1503.9808,0.042102
1505.8445,0.043018
1507.7082,0.045555
1509.5718,0.044496
1511.4355,0.043491
1513.2992,0.043214
1515.1628,0.043211
1517.0265,0.043406
1518.8902,0.043254
1520.7538,0.043726
1522.6175,0.044840
1524.4812,0.044681
1526.3448,0.044855
1528.2085,0.044859
1530.0722,0.044345
1531.9359,0.044404
1533.7995,0.044994
1535.6632,0.044323
1537.5269,0.043519
1539.3905,0.044739
1541.2542,0.047232
1543.1179,0.047117
1544.9815,0.047173
1546.8452,0.047015
1548.7089,0.046865
1550.5725,0.047192
1552.4362,0.047057
1554.2999,0.046806
1556.1635,0.046691
1558.0272,0.048362
1559.8909,0.052989
1561.7546,0.051054
1563.6182,0.049868
1565.4819,0.050291
1567.3456,0.050889
1569.2092,0.052179
1571.0729,0.053221
1572.9366,0.052715
1574.8002,0.053410
1576.6639,0.055948
1578.5276,0.056691
1580.3912,0.056321
1582.2549,0.056797
1584.1186,0.057501
1585.9822,0.058312
1587.8459,0.059042
1589.7096,0.059699
1591.5733,0.060270
1593.4369,0.060874
1595.3006,0.061508
1597.1643,0.061942
1599.0279,0.062132
1600.8916,0.062434
1602.7553,0.062702
1604.6189,0.062833
1606.4826,0.062949
1608.3463,0.063286
1610.2099,0.063526
1612.0736,0.063361
1613.9373,0.063219
1615.8010,0.064020
1617.6646,0.064995
1619.5283,0.063881
1621.3920,0.063313
1623.2556,0.063999
1625.1193,0.063856
1626.9830,0.063074
1628.8466,0.062074
1630.7103,0.060085
1632.5740,0.058345
1634.4376,0.058001
1636.3013,0.058688
1638.1650,0.057657
1640.0286,0.056242
1641.8923,0.055088
1643.7560,0.054163
1645.6197,0.054306
1647.4833,0.054700
1649.3470,0.052585
1651.2107,0.051590
1653.0743,0.054655
1654.9380,0.055765
1656.8017,0.052847
1658.6653,0.051468
1660.5290,0.050822
1662.3927,0.050824
1664.2563,0.050153
1666.1200,0.048757
1667.9837,0.048222
1669.8474,0.048272
1671.7110,0.047409
1673.5747,0.046806
1675.4384,0.047239
1677.3020,0.046611
1679.1657,0.045503
1681.0294,0.045267
1682.8930,0.045876
1684.7567,0.048300
1686.6204,0.047949
1688.4840,0.046649
1690.3477,0.046063
1692.2114,0.044966
1694.0750,0.044077
1695.9387,0.043873
1697.8024,0.043187
1699.6661,0.043072
1701.5297,0.043026
1703.3934,0.040984
1705.2571,0.039704
1707.1207,0.038569
1708.9844,0.037026
1710.8481,0.035755
1712.7117,0.034718
1714.5754,0.034125
1716.4391,0.034445
1718.3027,0.035364
1720.1664,0.034733
1722.0301,0.033679
1723.8937,0.033377
1725.7574,0.033110
1727.6211,0.032510
1729.4848,0.032002
1731.3484,0.031591
1733.2121,0.032018
1735.0758,0.032971
1736.9394,0.031972
1738.8031,0.031451
1740.6668,0.031698
1742.5304,0.031464
1744.3941,0.031180
1746.2578,0.030747
1748.1214,0.030713
1749.9851,0.031300
1751.8488,0.031563
1753.7125,0.030957
1755.5761,0.030505
1757.4398,0.030668
1759.3035,0.030601
1761.1671,0.030759
1763.0308,0.031118
1764.8945,0.030633
1766.7581,0.030308
1768.6218,0.030288
1770.4855,0.030385
1772.3491,0.031143
1774.2128,0.031412
1776.0765,0.030766
1777.9401,0.030606
1779.8038,0.030637
1781.6675,0.030845
1783.5312,0.030883
1785.3948,0.030864
1787.2585,0.030521
1789.1222,0.030352
1790.9858,0.030743
1792.8495,0.031235
1794.7132,0.031050
1796.5768,0.030686
1798.4405,0.030582
1800.3042,0.030818
1802.1678,0.031099
1804.0315,0.030852
1805.8952,0.030502
1807.7589,0.030466
1809.6225,0.030780
1811.4862,0.031217
1813.3499,0.031061
1815.2135,0.030581
1817.0772,0.030471
1818.9409,0.030477
1820.8045,0.030397
1822.6682,0.030294
1824.5319,0.030336
1826.3955,0.030552
1828.2592,0.030692
1830.1229,0.030996
1831.9865,0.030745
1833.8502,0.030353
1835.7139,0.030542
1837.5776,0.030499
1839.4412,0.030211
1841.3049,0.030045
1843.1686,0.030197
1845.0322,0.030824
1846.8959,0.030795
1848.7596,0.030559
1850.6232,0.030553
1852.4869,0.030505
1854.3506,0.030540
1856.2142,0.030495
1858.0779,0.030703
1859.9416,0.030891
1861.8052,0.030711
1863.6689,0.030264
1865.5326,0.030072
1867.3963,0.030505
1869.2599,0.030956
1871.1236,0.030675
1872.9873,0.030603
1874.8509,0.030478
1876.7146,0.030152
1878.5783,0.030144
1880.4419,0.030152
1882.3056,0.030124
1884.1693,0.029972
1886.0329,0.030153
1887.8966,0.030642
1889.7603,0.030765
1891.6240,0.030468
1893.4876,0.030227
1895.3513,0.030282
1897.2150,0.030236
1899.0786,0.030274
1900.9423,0.030044
1902.8060,0.029976
1904.6696,0.029997
1906.5333,0.029867
1908.3970,0.029988
1910.2606,0.029893
1912.1243,0.029258
1913.9880,0.029294
1915.8516,0.029477
1917.7153,0.029506
1919.5790,0.029753
1921.4427,0.029495
1923.3063,0.029040
1925.1700,0.028777
1927.0337,0.028987
1928.8973,0.029195
1930.7610,0.028664
1932.6247,0.028480
1934.4883,0.028346
1936.3520,0.027803
1938.2157,0.027815
1940.0793,0.027714
1941.9430,0.027280
1943.8067,0.027234
1945.6704,0.026699
1947.5340,0.026077
1949.3977,0.025386
1951.2614,0.024909
1953.1250,0.024808
1954.9887,0.024224
1956.8524,0.023755
1958.7160,0.023341
1960.5797,0.022585
1962.4434,0.021711
1964.3070,0.021403
1966.1707,0.020978
1968.0344,0.020231
1969.8980,0.019673
1971.7617,0.020060
1973.6254,0.019353
1975.4891,0.018133
1977.3527,0.017802
1979.2164,0.018449
1981.0801,0.019197
1982.9437,0.020572
1984.8074,0.021262
1986.6711,0.020945
1988.5347,0.020852
1990.3984,0.021516
1992.2621,0.022123
1994.1257,0.021586
1995.9894,0.021441
1997.8531,0.022515
1999.7167,0.023394
2001.5804,0.022872
2003.4441,0.020357
2005.3078,0.018819
2007.1714,0.018820
2009.0351,0.019059
2010.8988,0.018343
2012.7624,0.018619
2014.6261,0.019923
2016.4898,0.019644
2018.3534,0.018215
2020.2171,0.018625
2022.0808,0.018469
2023.9444,0.018193
2025.8081,0.018359
2027.6718,0.018065
2029.5355,0.018442
2031.3991,0.019409
2033.2628,0.018769
2035.1265,0.017949
2036.9901,0.018837
2038.8538,0.021399
2040.7175,0.022804
2042.5811,0.023132
2044.4448,0.022369
2046.3085,0.021736
2048.1721,0.022972
2050.0358,0.024916
2051.8995,0.025890
2053.7631,0.026817
2055.6268,0.027779
2057.4905,0.028478
2059.3542,0.028398
2061.2178,0.027835
2063.0815,0.027755
2064.9452,0.028950
2066.8088,0.029467
2068.6725,0.029305
2070.5362,0.029146
2072.3998,0.028970
2074.2635,0.029364
2076.1272,0.030133
2077.9908,0.030668
2079.8545,0.030806
2081.7182,0.030830
2083.5819,0.031126
2085.4455,0.031559
2087.3092,0.031667
2089.1729,0.031393
2091.0365,0.031059
2092.9002,0.030834
2094.7639,0.031112
2096.6275,0.031420
2098.4912,0.031488
2100.3549,0.031635
2102.2185,0.031696
2104.0822,0.031232
2105.9459,0.030943
2107.8095,0.031215
2109.6732,0.031433
2111.5369,0.031778
2113.4006,0.032795
2115.2642,0.033012
2117.1279,0.032104
2118.9916,0.031612
2120.8552,0.031989
2122.7189,0.031882
2124.5826,0.031108
2126.4462,0.031074
2128.3099,0.030873
2130.1736,0.029787
2132.0372,0.028789
2133.9009,0.028335
2135.7646,0.028054
2137.6282,0.028055
2139.4919,0.027381
2141.3556,0.026791
2143.2193,0.027107
2145.0829,0.026460
2146.9466,0.023909
2148.8103,0.022657
2150.6739,0.021587
2152.5376,0.021093
2154.4013,0.020547
2156.2649,0.017923
2158.1286,0.015662
2159.9923,0.016804
2161.8559,0.019434
2163.7196,0.019908
2165.5833,0.019855
2167.4470,0.021026
2169.3106,0.021195
2171.1743,0.020588
2173.0380,0.021665
2174.9016,0.022079
2176.7653,0.022496
2178.6290,0.023218
2180.4926,0.023694
2182.3563,0.023432
2184.2200,0.024238
2186.0836,0.024904
2187.9473,0.024774
2189.8110,0.025098
2191.6746,0.026464
2193.5383,0.027020
2195.4020,0.026107
2197.2657,0.026151
2199.1293,0.027301
2200.9930,0.027595
2202.8567,0.028222
2204.7203,0.028774
2206.5840,0.028376
2208.4477,0.027341
2210.3113,0.027658
2212.1750,0.027846
2214.0387,0.027560
2215.9023,0.027595
2217.7660,0.028116
2219.6297,0.028287
2221.4934,0.029206
2223.3570,0.031153
2225.2207,0.031265
2227.0844,0.030470
2228.9480,0.030629
2230.8117,0.030383
2232.6754,0.030362
2234.5390,0.030807
2236.4027,0.031120
2238.2664,0.031132
2240.1300,0.031185
2241.9937,0.031731
2243.8574,0.032634
2245.7210,0.032597
2247.5847,0.032410
2249.4484,0.032501
2251.3121,0.032045
2253.1757,0.032156
2255.0394,0.032992
2256.9031,0.033589
2258.7667,0.033761
2260.6304,0.033706
2262.4941,0.034079
2264.3577,0.034119
2266.2214,0.034474
2268.0851,0.035084
2269.9487,0.034844
2271.8124,0.035261
2273.6761,0.035848
2275.5397,0.035942
2277.4034,0.035891
2279.2671,0.036120
2281.1308,0.036480
2282.9944,0.036746
2284.8581,0.037019
2286.7218,0.037471
2288.5854,0.037779
2290.4491,0.037724
2292.3128,0.037656
2294.1764,0.037937
2296.0401,0.037995
2297.9038,0.037793
2299.7674,0.037881
2301.6311,0.037897
2303.4948,0.037780
2305.3585,0.038163
2307.2221,0.038418
2309.0858,0.038195
2310.9495,0.038538
2312.8131,0.038845
2314.6768,0.038821
2316.5405,0.039211
2318.4041,0.039382
2320.2678,0.039592
2322.1315,0.039966
2323.9951,0.039936
2325.8588,0.039460
2327.7225,0.039215
2329.5861,0.039135
2331.4498,0.039229
2333.3135,0.039252
2335.1772,0.039081
2337.0408,0.039237
2338.9045,0.039454
2340.7682,0.040060
2342.6318,0.040789
2344.4955,0.040747
2346.3592,0.040399
2348.2228,0.039658
2350.0865,0.038985
2351.9502,0.039097
2353.8138,0.039352
2355.6775,0.039495
2357.5412,0.039583
2359.4049,0.039574
2361.2685,0.039670
2363.1322,0.040142
2364.9959,0.040338
2366.8595,0.040427
2368.7232,0.041020
2370.5869,0.040930
2372.4505,0.040820
2374.3142,0.041180
2376.1779,0.041285
2378.0415,0.041205
2379.9052,0.040764
2381.7689,0.040324
2383.6325,0.040372
2385.4962,0.040484
2387.3599,0.040539
2389.2236,0.040461
2391.0872,0.040333
2392.9509,0.040383
2394.8146,0.040414
2396.6782,0.040310
2398.5419,0.040359
2400.4056,0.040323
2402.2692,0.040364
2404.1329,0.040755
2405.9966,0.040968
2407.8602,0.040821
2409.7239,0.040867
2411.5876,0.040889
2413.4512,0.040822
2415.3149,0.041218
2417.1786,0.041472
2419.0423,0.041277
2420.9059,0.041315
2422.7696,0.041450
2424.6333,0.041359
2426.4969,0.041173
2428.3606,0.041266
2430.2243,0.041521
2432.0879,0.041858
2433.9516,0.042059
2435.8153,0.041783
2437.6789,0.041642
2439.5426,0.041911
2441.4063,0.041972
2443.2700,0.041903
2445.1336,0.042058
2446.9973,0.042192
2448.8610,0.042209
2450.7246,0.042554
2452.5883,0.042646
2454.4520,0.042679
2456.3156,0.042479
2458.1793,0.042364
2460.0430,0.042387
2461.9066,0.042547
2463.7703,0.042744
2465.6340,0.043095
2467.4976,0.042969
2469.3613,0.042866
2471.2250,0.042859
2473.0887,0.043009
2474.9523,0.043001
2476.8160,0.043215
2478.6797,0.043527
2480.5433,0.043386
2482.4070,0.043383
2484.2707,0.043352
2486.1343,0.043270
2487.9980,0.043375
2489.8617,0.043568
2491.7253,0.043916
2493.5890,0.043901
2495.4527,0.044038
2497.3164,0.044477
2499.1800,0.044444
2501.0437,0.044153
2502.9074,0.044074
2504.7710,0.044447
2506.6347,0.044723
2508.4984,0.044466
2510.3620,0.044433
2512.2257,0.044465
2514.0894,0.044703
2515.9530,0.044745
2517.8167,0.044850
2519.6804,0.044870
2521.5440,0.044802
2523.4077,0.044908
2525.2714,0.045053
2527.1351,0.044958
