Wavenumber,Intensity
650.4205,0.171864
652.2841,0.180249
654.1478,0.190444
656.0115,0.202006
657.8751,0.215564
659.7388,0.229608
661.6025,0.246740
663.4661,0.263788
665.3298,0.278425
667.1935,0.287461
669.0571,0.279140
670.9208,0.256733
672.7845,0.236362
674.6481,0.217627
676.5118,0.203336
678.3755,0.191625
680.2392,0.185413
682.1028,0.178171
683.9665,0.168697
685.8302,0.160354
687.6938,0.151806
689.5575,0.143704
691.4212,0.137380
693.2848,0.129688
695.1485,0.121661
697.0122,0.115155
698.8758,0.111391
700.7395,0.108651
702.6032,0.106560
704.4669,0.104370
706.3305,0.101497
708.1942,0.099266
710.0579,0.097036
711.9215,0.093485
713.7852,0.091009
715.6489,0.089141
717.5125,0.087405
719.3762,0.086690
721.2399,0.085798
723.1035,0.083643
724.9672,0.082155
726.8309,0.081165
728.6945,0.080995
730.5582,0.080452
732.4219,0.078987
734.2856,0.079439
736.1492,0.080516
738.0129,0.080254
739.8766,0.080600
741.7402,0.081996
743.6039,0.083491
745.4676,0.084572
747.3312,0.085417
749.1949,0.085018
751.0586,0.084235
752.9222,0.083974
754.7859,0.084258
756.6496,0.084187
758.5132,0.084562
760.3769,0.084983
762.2406,0.085044
764.1043,0.085589
765.9679,0.086320
767.8316,0.086846
769.6953,0.087048
771.5589,0.087284
773.4226,0.087949
775.2863,0.089256
777.1499,0.091023
779.0136,0.091932
780.8773,0.091925
782.7409,0.091082
784.6046,0.090268
786.4683,0.090461
788.3320,0.091387
790.1956,0.092034
792.0593,0.092176
793.9230,0.092192
795.7866,0.092317
797.6503,0.092624
799.5140,0.093051
801.3776,0.093338
803.2413,0.093982
805.1050,0.095125
806.9686,0.096464
808.8323,0.097357
810.6960,0.097563
812.5596,0.096861
814.4233,0.095868
816.2870,0.095282
818.1507,0.095357
820.0143,0.095641
821.8780,0.096028
823.7417,0.096708
825.6053,0.097785
827.4690,0.099209
829.3327,0.100894
831.1963,0.101919
833.0600,0.101641
834.9237,0.101179
836.7873,0.101626
838.6510,0.102513
840.5147,0.104037
842.3784,0.106000
844.2420,0.108538
846.1057,0.111057
847.9694,0.112469
849.8330,0.112569
851.6967,0.111968
853.5604,0.111396
855.4240,0.111788
857.2877,0.112533
859.1514,0.112995
861.0150,0.113471
862.8787,0.114308
864.7424,0.115561
866.6060,0.117302
868.4697,0.118698
870.3334,0.120156
872.1971,0.122102
874.0607,0.124249
875.9244,0.126543
877.7881,0.128724
879.6517,0.130773
881.5154,0.132987
883.3791,0.135092
885.2427,0.136969
887.1064,0.138386
888.9701,0.139849
890.8337,0.141409
892.6974,0.142894
894.5611,0.144664
896.4247,0.146915
898.2884,0.148929
900.1521,0.150805
902.0158,0.152609
903.8794,0.154592
905.7431,0.156782
907.6068,0.159481
909.4704,0.162559
911.3341,0.165731
913.1978,0.168882
915.0614,0.171730
916.9251,0.172941
918.7888,0.172687
920.6524,0.173044
922.5161,0.174600
924.3798,0.176678
926.2435,0.178886
928.1071,0.180419
929.9708,0.181822
931.8345,0.183617
933.6981,0.186045
935.5618,0.188805
937.4255,0.191454
939.2891,0.193779
941.1528,0.196220
943.0165,0.198814
944.8801,0.201494
946.7438,0.204120
948.6075,0.206716
950.4711,0.209328
952.3348,0.212147
954.1985,0.215198
956.0622,0.218631
957.9258,0.222141
959.7895,0.225878
961.6532,0.229670
963.5168,0.233637
965.3805,0.237815
967.2442,0.241980
969.1078,0.246000
970.9715,0.250204
972.8352,0.254200
974.6988,0.258419
976.5625,0.263073
978.4262,0.268627
980.2899,0.274657
982.1535,0.278055
984.0172,0.275655
985.8809,0.272362
987.7445,0.272716
989.6082,0.275471
991.4719,0.278331
993.3355,0.280898
995.1992,0.283205
997.0629,0.285168
998.9265,0.286714
1000.7902,0.288256
1002.6539,0.289540
1004.5175,0.291069
1006.3812,0.292611
1008.2449,0.293667
1010.1086,0.293082
1011.9722,0.290213
1013.8359,0.285264
1015.6996,0.278498
1017.5632,0.269668
1019.4269,0.259169
1021.2906,0.247539
1023.1542,0.235876
1025.0179,0.224744
1026.8816,0.214383
1028.7452,0.204871
1030.6089,0.196320
1032.4726,0.188313
1034.3362,0.180718
1036.1999,0.173220
1038.0636,0.165935
1039.9273,0.158878
1041.7909,0.152039
1043.6546,0.145561
1045.5183,0.139329
1047.3819,0.133209
1049.2456,0.127377
1051.1093,0.122371
1052.9729,0.118546
1054.8366,0.115676
1056.7003,0.113787
1058.5639,0.112715
1060.4276,0.112040
1062.2913,0.111165
1064.1550,0.110373
1066.0186,0.109762
1067.8823,0.109249
1069.7460,0.108929
1071.6096,0.108775
1073.4733,0.108619
1075.3370,0.108438
1077.2006,0.107858
1079.0643,0.106883
1080.9280,0.105704
1082.7916,0.104511
1084.6553,0.103260
1086.5190,0.101817
1088.3826,0.100402
1090.2463,0.099181
1092.1100,0.098285
1093.9737,0.097973
1095.8373,0.097914
1097.7010,0.097707
1099.5647,0.097528
1101.4283,0.097398
1103.2920,0.097181
1105.1557,0.096674
1107.0193,0.095461
1108.8830,0.093650
1110.7467,0.091585
1112.6103,0.089434
1114.4740,0.087133
1116.3377,0.084941
1118.2014,0.082914
1120.0650,0.081253
1121.9287,0.079828
1123.7924,0.078448
1125.6560,0.077280
1127.5197,0.076270
1129.3834,0.075028
1131.2470,0.073485
1133.1107,0.071950
1134.9744,0.070489
1136.8380,0.069024
1138.7017,0.067676
1140.5654,0.066422
1142.4290,0.065381
1144.2927,0.064533
1146.1564,0.063696
1148.0201,0.062811
1149.8837,0.061968
1151.7474,0.061199
1153.6111,0.060379
1155.4747,0.059547
1157.3384,0.058733
1159.2021,0.057797
1161.0657,0.056826
1162.9294,0.055958
1164.7931,0.055203
1166.6567,0.054519
1168.5204,0.053868
1170.3841,0.053284
1172.2477,0.052735
1174.1114,0.052240
1175.9751,0.051708
1177.8388,0.051139
1179.7024,0.050725
1181.5661,0.050526
1183.4298,0.050624
1185.2934,0.050777
1187.1571,0.050749
1189.0208,0.050745
1190.8844,0.050745
1192.7481,0.050698
1194.6118,0.050853
1196.4754,0.051271
1198.3391,0.051781
1200.2028,0.052266
1202.0665,0.052588
1203.9301,0.052689
1205.7938,0.052438
1207.6575,0.052185
1209.5211,0.052402
1211.3848,0.052885
1213.2485,0.053395
1215.1121,0.054054
1216.9758,0.054828
1218.8395,0.055482
1220.7031,0.055920
1222.5668,0.056172
1224.4305,0.056481
1226.2941,0.056860
1228.1578,0.057121
1230.0215,0.057262
1231.8852,0.057351
1233.7488,0.057359
1235.6125,0.057221
1237.4762,0.057186
1239.3398,0.057185
1241.2035,0.057035
1243.0672,0.056830
1244.9308,0.056699
1246.7945,0.056720
1248.6582,0.056719
1250.5218,0.056634
1252.3855,0.056686
1254.2492,0.056764
1256.1129,0.056775
1257.9765,0.056709
1259.8402,0.056514
1261.7039,0.056233
1263.5675,0.055925
1265.4312,0.055676
1267.2949,0.055389
1269.1585,0.054998
1271.0222,0.054901
1272.8859,0.055110
1274.7495,0.055430
1276.6132,0.055886
1278.4769,0.056456
1280.3405,0.057070
1282.2042,0.057635
1284.0679,0.057967
1285.9316,0.058083
1287.7952,0.058262
1289.6589,0.058656
1291.5226,0.059222
1293.3862,0.059969
1295.2499,0.060992
1297.1136,0.062076
1298.9772,0.063079
1300.8409,0.064293
1302.7046,0.065812
1304.5682,0.067219
1306.4319,0.067771
1308.2956,0.066881
1310.1592,0.064735
1312.0229,0.062620
1313.8866,0.061470
1315.7503,0.061104
1317.6139,0.061291
1319.4776,0.061560
1321.3413,0.061447
1323.2049,0.061523
1325.0686,0.062169
1326.9323,0.063162
1328.7959,0.064101
1330.6596,0.064641
1332.5233,0.064592
1334.3869,0.063589
1336.2506,0.062012
1338.1143,0.061047
1339.9780,0.060689
1341.8416,0.059624
1343.7053,0.058606
1345.5690,0.058400
1347.4326,0.058778
1349.2963,0.059484
1351.1600,0.060167
1353.0236,0.060910
1354.8873,0.061968
1356.7510,0.062754
1358.6146,0.062904
1360.4783,0.063147
1362.3420,0.064259
1364.2056,0.064919
1366.0693,0.064915
1367.9330,0.065929
1369.7967,0.067251
1371.6603,0.068186
1373.5240,0.070333
1375.3877,0.072571
1377.2513,0.073351
1379.1150,0.074296
1380.9787,0.075453
1382.8423,0.076461
1384.7060,0.077649
1386.5697,0.080218
1388.4333,0.082859
1390.2970,0.082957
1392.1607,0.082768
1394.0244,0.083714
1395.8880,0.084080
1397.7517,0.083204
1399.6154,0.082568
1401.4790,0.081056
1403.3427,0.080002
1405.2064,0.079445
1407.0700,0.077201
1408.9337,0.074266
1410.7974,0.071995
1412.6610,0.070042
1414.5247,0.068222
1416.3884,0.067273
1418.2520,0.068249
1420.1157,0.068910
1421.9794,0.067333
1423.8431,0.066002
1425.7067,0.064023
1427.5704,0.062112
1429.4341,0.061590
1431.2977,0.061399
1433.1614,0.060842
1435.0251,0.061850
1436.8887,0.065431
1438.7524,0.066286
1440.6161,0.065496
1442.4797,0.065767
1444.3434,0.065946
1446.2071,0.066424
1448.0707,0.067820
1449.9344,0.067956
1451.7981,0.066355
1453.6618,0.063986
1455.5254,0.063389
1457.3891,0.066624
1459.2528,0.066072
1461.1164,0.063656
1462.9801,0.063611
1464.8438,0.065271
1466.7074,0.064821
1468.5711,0.062659
1470.4348,0.061882
1472.2984,0.063612
1474.1621,0.064927
1476.0258,0.064411
1477.8895,0.063574
1479.7531,0.063345
1481.6168,0.064632
1483.4805,0.065910
1485.3441,0.066995
1487.2078,0.069626
1489.0715,0.074192
1490.9351,0.077828
1492.7988,0.077315
1494.6625,0.077526
1496.5261,0.081158
1498.3898,0.084702
1500.2535,0.085154
1502.1171,0.084297
1503.9808,0.084099
1505.8445,0.088588
1507.7082,0.098764
1509.5718,0.096997
1511.4355,0.095124
1513.2992,0.094830
1515.1628,0.094842
1517.0265,0.095466
1518.8902,0.094795
1520.7538,0.095357
1522.6175,0.096393
1524.4812,0.095033
1526.3448,0.095098
1528.2085,0.095001
1530.0722,0.093861
1531.9359,0.094025
1533.7995,0.095383
1535.6632,0.093585
1537.5269,0.092001
1539.3905,0.094344
1541.2542,0.097404
1543.1179,0.095250
1544.9815,0.093606
1546.8452,0.091396
1548.7089,0.090065
1550.5725,0.089269
1552.4362,0.087612
1554.2999,0.086000
1556.1635,0.084397
1558.0272,0.086141
1559.8909,0.089402
1561.7546,0.083832
1563.6182,0.081566
1565.4819,0.080631
1567.3456,0.079537
1569.2092,0.079663
1571.0729,0.079090
1572.9366,0.077073
1574.8002,0.076747
1576.6639,0.077949
1578.5276,0.076772
1580.3912,0.075465
1582.2549,0.075181
1584.1186,0.075257
1585.9822,0.075374
1587.8459,0.075396
1589.7096,0.075561
1591.5733,0.075820
1593.4369,0.076349
1595.3006,0.077159
1597.1643,0.078022
1599.0279,0.078989
1600.8916,0.080262
1602.7553,0.081961
1604.6189,0.083646
1606.4826,0.085497
1608.3463,0.087961
1610.2099,0.090020
1612.0736,0.091193
1613.9373,0.092410
1615.8010,0.095488
1617.6646,0.099327
1619.5283,0.098674
1621.3920,0.098498
1623.2556,0.100918
1625.1193,0.102049
1626.9830,0.101447
1628.8466,0.100494
1630.7103,0.098358
1632.5740,0.096054
1634.4376,0.094757
1636.3013,0.093350
1638.1650,0.089972
1640.0286,0.087278
1641.8923,0.085088
1643.7560,0.083235
1645.6197,0.082340
1647.4833,0.081473
1649.3470,0.078999
1651.2107,0.077798
1653.0743,0.079280
1654.9380,0.078138
1656.8017,0.075302
1658.6653,0.073613
1660.5290,0.072203
1662.3927,0.071148
1664.2563,0.069359
1666.1200,0.067251
1667.9837,0.065886
1669.8474,0.064444
1671.7110,0.062225
1673.5747,0.060722
1675.4384,0.059386
1677.3020,0.056912
1679.1657,0.054774
1681.0294,0.052551
1682.8930,0.050875
1684.7567,0.049037
1686.6204,0.045819
1688.4840,0.043495
1690.3477,0.040527
1692.2114,0.037132
1694.0750,0.034365
1695.9387,0.031134
1697.8024,0.027470
1699.6661,0.025390
1701.5297,0.022368
1703.3934,0.020847
1705.2571,0.019736
1707.1207,0.017956
1708.9844,0.016699
1710.8481,0.015565
1712.7117,0.014594
1714.5754,0.013831
1716.4391,0.012850
1718.3027,0.012277
1720.1664,0.012242
1722.0301,0.012206
1723.8937,0.011930
1725.7574,0.011494
1727.6211,0.011173
1729.4848,0.010734
1731.3484,0.010171
1733.2121,0.009852
1735.0758,0.009395
1736.9394,0.009214
1738.8031,0.009267
1740.6668,0.009060
1742.5304,0.009032
1744.3941,0.009128
1746.2578,0.008956
1748.1214,0.008671
1749.9851,0.008474
1751.8488,0.008404
1753.7125,0.008297
1755.5761,0.008285
1757.4398,0.008161
1759.3035,0.007915
1761.1671,0.007823
1763.0308,0.007760
1764.8945,0.007854
1766.7581,0.007903
1768.6218,0.007638
1770.4855,0.007324
1772.3491,0.007109
1774.2128,0.007095
1776.0765,0.007230
1777.9401,0.007287
1779.8038,0.007294
1781.6675,0.007337
1783.5312,0.007526
1785.3948,0.007625
1787.2585,0.007565
1789.1222,0.007549
1790.9858,0.007464
1792.8495,0.007356
1794.7132,0.007240
1796.5768,0.007212
1798.4405,0.007397
1800.3042,0.007459
1802.1678,0.007257
1804.0315,0.007377
1805.8952,0.007642
1807.7589,0.007585
1809.6225,0.007394
1811.4862,0.007345
1813.3499,0.007415
1815.2135,0.007489
1817.0772,0.007364
1818.9409,0.007293
1820.8045,0.007543
1822.6682,0.007722
1824.5319,0.007633
1826.3955,0.007315
1828.2592,0.007055
1830.1229,0.007014
1831.9865,0.006979
1833.8502,0.007072
1835.7139,0.007230
1837.5776,0.007360
1839.4412,0.007225
1841.3049,0.006930
1843.1686,0.006763
1845.0322,0.006571
1846.8959,0.006476
1848.7596,0.006689
1850.6232,0.006944
1852.4869,0.006995
1854.3506,0.006717
1856.2142,0.006534
1858.0779,0.006554
1859.9416,0.006606
1861.8052,0.006722
1863.6689,0.006947
1865.5326,0.006834
1867.3963,0.006270
1869.2599,0.006006
1871.1236,0.006271
1872.9873,0.006479
1874.8509,0.006358
1876.7146,0.006200
1878.5783,0.006373
1880.4419,0.006480
1882.3056,0.006437
1884.1693,0.006616
1886.0329,0.006475
1887.8966,0.005808
1889.7603,0.005593
1891.6240,0.005827
1893.4876,0.006148
1895.3513,0.006287
1897.2150,0.006068
1899.0786,0.005912
1900.9423,0.005751
1902.8060,0.005741
1904.6696,0.006035
1906.5333,0.006253
1908.3970,0.006069
1910.2606,0.005862
1912.1243,0.005989
1913.9880,0.006056
1915.8516,0.005876
1917.7153,0.005336
1919.5790,0.005160
1921.4427,0.005495
1923.3063,0.005244
1925.1700,0.004575
1927.0337,0.004681
1928.8973,0.004751
1930.7610,0.004598
1932.6247,0.004546
1934.4883,0.004245
1936.3520,0.003887
1938.2157,0.003969
1940.0793,0.004061
1941.9430,0.003582
1943.8067,0.003618
1945.6704,0.004228
1947.5340,0.003700
1949.3977,0.002701
1951.2614,0.002319
1953.1250,0.002779
1954.9887,0.002998
1956.8524,0.002703
1958.7160,0.001981
1960.5797,0.001163
1962.4434,0.000940
1964.3070,0.000955
1966.1707,-0.000032
1968.0344,-0.000221
1969.8980,0.000238
1971.7617,0.000122
1973.6254,-0.000239
1975.4891,-0.000637
1977.3527,-0.000301
1979.2164,0.000074
1981.0801,0.000036
1982.9437,0.000343
1984.8074,0.000701
1986.6711,0.000714
1988.5347,0.000163
1990.3984,0.000505
1992.2621,0.001572
1994.1257,0.001942
1995.9894,0.001184
1997.8531,0.000839
1999.7167,0.000969
2001.5804,0.000743
2003.4441,0.000834
2005.3078,0.000439
2007.1714,-0.000366
2009.0351,0.000668
2010.8988,0.000056
2012.7624,-0.001369
2014.6261,-0.001133
2016.4898,-0.001106
2018.3534,-0.001923
2020.2171,-0.002209
2022.0808,-0.001589
2023.9444,-0.001325
2025.8081,-0.001645
2027.6718,-0.001855
2029.5355,-0.001840
2031.3991,-0.001626
2033.2628,-0.001464
2035.1265,-0.001036
2036.9901,-0.000730
2038.8538,-0.000437
2040.7175,-0.000161
2042.5811,0.000130
2044.4448,0.001247
2046.3085,0.002046
2048.1721,0.002183
2050.0358,0.002291
2051.8995,0.002725
2053.7631,0.003418
2055.6268,0.003982
2057.4905,0.004155
2059.3542,0.003882
2061.2178,0.004365
2063.0815,0.004931
2064.9452,0.005048
2066.8088,0.005478
2068.6725,0.005405
2070.5362,0.004879
2072.3998,0.004812
2074.2635,0.004879
2076.1272,0.005096
2077.9908,0.005856
2079.8545,0.006046
2081.7182,0.005849
2083.5819,0.006401
2085.4455,0.007082
2087.3092,0.006975
2089.1729,0.006538
2091.0365,0.006315
2092.9002,0.006115
2094.7639,0.005735
2096.6275,0.005619
2098.4912,0.006415
2100.3549,0.006752
2102.2185,0.006302
2104.0822,0.006003
2105.9459,0.006358
2107.8095,0.006809
2109.6732,0.006680
2111.5369,0.006566
2113.4006,0.006809
2115.2642,0.006899
2117.1279,0.006524
2118.9916,0.006302
2120.8552,0.006664
2122.7189,0.006387
2124.5826,0.005965
2126.4462,0.006124
2128.3099,0.006023
2130.1736,0.005715
2132.0372,0.005842
2133.9009,0.005232
2135.7646,0.004164
2137.6282,0.003628
2139.4919,0.003785
2141.3556,0.003669
2143.2193,0.003094
2145.0829,0.002888
2146.9466,0.002462
2148.8103,0.002302
2150.6739,0.001963
2152.5376,0.000697
2154.4013,-0.000076
2156.2649,-0.002166
2158.1286,-0.002843
2159.9923,-0.000340
2161.8559,0.000401
2163.7196,-0.000108
2165.5833,0.000619
2167.4470,0.001371
2169.3106,0.001803
2171.1743,0.002084
2173.0380,0.001740
2174.9016,0.000257
2176.7653,0.000469
2178.6290,0.001483
2180.4926,0.001761
2182.3563,0.002403
2184.2200,0.002980
2186.0836,0.002549
2187.9473,0.002062
2189.8110,0.002367
2191.6746,0.003977
2193.5383,0.004654
2195.4020,0.004124
2197.2657,0.004023
2199.1293,0.004608
2200.9930,0.004069
2202.8567,0.003328
2204.7203,0.004148
2206.5840,0.005019
2208.4477,0.004558
2210.3113,0.004563
2212.1750,0.005353
2214.0387,0.005841
2215.9023,0.006165
2217.7660,0.005822
2219.6297,0.005772
2221.4934,0.005946
2223.3570,0.005885
2225.2207,0.005850
2227.0844,0.006136
2228.9480,0.006818
2230.8117,0.006646
2232.6754,0.006202
2234.5390,0.006297
2236.4027,0.006617
2238.2664,0.007052
2240.1300,0.007209
2241.9937,0.006862
2243.8574,0.006861
2245.7210,0.007184
2247.5847,0.007277
2249.4484,0.007223
2251.3121,0.007986
2253.1757,0.008996
2255.0394,0.008507
2256.9031,0.007772
2258.7667,0.008261
2260.6304,0.008283
2262.4941,0.007892
2264.3577,0.008032
2266.2214,0.008448
2268.0851,0.008769
2269.9487,0.008815
2271.8124,0.008978
2273.6761,0.009089
2275.5397,0.009260
2277.4034,0.009790
2279.2671,0.010011
2281.1308,0.010179
2282.9944,0.010410
2284.8581,0.010772
2286.7218,0.011064
2288.5854,0.010963
2290.4491,0.010768
2292.3128,0.010423
2294.1764,0.010495
2296.0401,0.011043
2297.9038,0.011194
2299.7674,0.011007
2301.6311,0.010964
2303.4948,0.011114
2305.3585,0.011076
2307.2221,0.011155
2309.0858,0.011286
2310.9495,0.011232
2312.8131,0.011213
2314.6768,0.011449
2316.5405,0.011353
2318.4041,0.011221
2320.2678,0.011559
2322.1315,0.011850
2323.9951,0.012034
2325.8588,0.011998
2327.7225,0.011165
2329.5861,0.010497
2331.4498,0.010523
2333.3135,0.010772
2335.1772,0.011031
2337.0408,0.011121
2338.9045,0.011140
2340.7682,0.011124
2342.6318,0.011065
2344.4955,0.011136
2346.3592,0.011457
2348.2228,0.011285
2350.0865,0.010768
2351.9502,0.010493
2353.8138,0.010536
2355.6775,0.010534
2357.5412,0.010564
2359.4049,0.010954
2361.2685,0.011098
2363.1322,0.010813
2364.9959,0.010598
2366.8595,0.010509
2368.7232,0.010600
2370.5869,0.010690
2372.4505,0.010800
2374.3142,0.011030
2376.1779,0.011250
2378.0415,0.011162
2379.9052,0.011092
2381.7689,0.010936
2383.6325,0.010856
2385.4962,0.011099
2387.3599,0.011268
2389.2236,0.011310
2391.0872,0.011248
2392.9509,0.011359
2394.8146,0.011538
2396.6782,0.011481
2398.5419,0.011490
2400.4056,0.011507
2402.2692,0.011376
2404.1329,0.011350
2405.9966,0.011579
2407.8602,0.011599
2409.7239,0.011615
2411.5876,0.012098
2413.4512,0.012200
2415.3149,0.012091
2417.1786,0.012131
2419.0423,0.012151
2420.9059,0.012180
2422.7696,0.012158
2424.6333,0.012361
2426.4969,0.012610
2428.3606,0.012355
2430.2243,0.012385
2432.0879,0.012684
2433.9516,0.013048
2435.8153,0.012939
2437.6789,0.012782
2439.5426,0.012964
2441.4063,0.012878
2443.2700,0.012700
2445.1336,0.012433
2446.9973,0.012453
2448.8610,0.012758
2450.7246,0.012886
2452.5883,0.012696
2454.4520,0.012539
2456.3156,0.012764
2458.1793,0.012947
2460.0430,0.013290
2461.9066,0.013520
2463.7703,0.013301
2465.6340,0.013266
2467.4976,0.013525
2469.3613,0.013349
2471.2250,0.013248
2473.0887,0.013478
2474.9523,0.013541
2476.8160,0.013623
2478.6797,0.013651
2480.5433,0.013594
2482.4070,0.013960
2484.2707,0.014242
2486.1343,0.013843
2487.9980,0.013720
2489.8617,0.013911
2491.7253,0.013798
2493.5890,0.014004
2495.4527,0.014195
2497.3164,0.014477
2499.1800,0.014429
2501.0437,0.014057
2502.9074,0.014071
2504.7710,0.014037
2506.6347,0.014488
2508.4984,0.014841
2510.3620,0.014835
2512.2257,0.015048
2514.0894,0.014840
2515.9530,0.014579
2517.8167,0.014942
2519.6804,0.014976
2521.5440,0.014771
2523.4077,0.015170
