Wavenumber,Intensity
650.4205,0.202902
652.2841,0.213662
654.1478,0.223704
656.0115,0.234126
657.8751,0.248834
659.7388,0.265763
661.6025,0.286300
663.4661,0.302744
665.3298,0.314215
667.1935,0.325658
669.0571,0.326546
670.9208,0.301302
672.7845,0.274583
674.6481,0.249920
676.5118,0.232847
678.3755,0.220044
680.2392,0.211231
682.1028,0.203384
683.9665,0.194003
685.8302,0.183699
687.6938,0.175395
689.5575,0.166654
691.4212,0.158360
693.2848,0.150327
695.1485,0.142012
697.0122,0.134966
698.8758,0.130729
700.7395,0.127836
702.6032,0.124357
704.4669,0.119982
706.3305,0.116514
708.1942,0.113928
710.0579,0.111053
711.9215,0.107810
713.7852,0.105582
715.6489,0.103029
717.5125,0.100795
719.3762,0.098905
721.2399,0.096503
723.1035,0.094531
724.9672,0.093538
726.8309,0.093498
728.6945,0.092921
730.5582,0.091654
732.4219,0.091391
734.2856,0.091939
736.1492,0.091869
738.0129,0.091835
739.8766,0.092838
741.7402,0.093790
743.6039,0.094973
745.4676,0.095928
747.3312,0.095947
749.1949,0.095938
751.0586,0.095680
752.9222,0.095391
754.7859,0.095018
756.6496,0.093890
758.5132,0.093673
760.3769,0.094108
762.2406,0.094334
764.1043,0.094983
765.9679,0.095956
767.8316,0.096272
769.6953,0.096666
771.5589,0.097443
773.4226,0.099004
775.2863,0.100866
777.1499,0.102100
779.0136,0.102431
780.8773,0.102495
782.7409,0.102075
784.6046,0.101247
786.4683,0.101386
788.3320,0.102143
790.1956,0.102438
792.0593,0.102826
793.9230,0.103482
795.7866,0.103982
797.6503,0.104365
799.5140,0.105178
801.3776,0.106397
803.2413,0.107422
805.1050,0.108070
806.9686,0.109241
808.8323,0.110664
810.6960,0.111063
812.5596,0.109849
814.4233,0.108458
816.2870,0.107578
818.1507,0.107512
820.0143,0.107903
821.8780,0.108532
823.7417,0.109238
825.6053,0.110468
827.4690,0.112351
829.3327,0.114211
831.1963,0.114578
833.0600,0.113496
834.9237,0.112593
836.7873,0.112969
838.6510,0.114011
840.5147,0.115465
842.3784,0.117311
844.2420,0.119718
846.1057,0.122200
847.9694,0.123819
849.8330,0.124528
851.6967,0.124700
853.5604,0.124807
855.4240,0.125201
857.2877,0.125601
859.1514,0.126316
861.0150,0.127340
862.8787,0.128701
864.7424,0.130133
866.6060,0.131832
868.4697,0.133560
870.3334,0.135094
872.1971,0.136947
874.0607,0.139357
875.9244,0.141780
877.7881,0.143943
879.6517,0.146084
881.5154,0.148324
883.3791,0.150631
885.2427,0.152986
887.1064,0.154800
888.9701,0.156619
890.8337,0.158823
892.6974,0.161091
894.5611,0.163165
896.4247,0.165388
898.2884,0.167536
900.1521,0.169651
902.0158,0.171844
903.8794,0.174196
905.7431,0.176865
907.6068,0.180185
909.4704,0.183695
911.3341,0.187519
913.1978,0.191702
915.0614,0.195238
916.9251,0.196160
918.7888,0.194910
920.6524,0.194297
922.5161,0.195770
924.3798,0.198511
926.2435,0.201310
928.1071,0.203294
929.9708,0.205041
931.8345,0.207096
933.6981,0.209754
935.5618,0.212525
937.4255,0.215125
939.2891,0.217729
941.1528,0.220438
943.0165,0.223095
944.8801,0.225917
946.7438,0.228669
948.6075,0.231548
950.4711,0.234805
952.3348,0.238263
954.1985,0.241877
956.0622,0.245688
957.9258,0.249428
959.7895,0.253520
961.6532,0.257844
963.5168,0.262290
965.3805,0.266879
967.2442,0.271839
969.1078,0.277048
970.9715,0.282142
972.8352,0.287236
974.6988,0.292906
976.5625,0.299270
978.4262,0.307507
980.2899,0.316870
982.1535,0.321761
984.0172,0.317543
985.8809,0.312398
987.7445,0.313257
989.6082,0.317599
991.4719,0.322167
993.3355,0.326520
995.1992,0.330536
997.0629,0.334117
998.9265,0.337232
1000.7902,0.339644
1002.6539,0.341433
1004.5175,0.343683
1006.3812,0.345966
1008.2449,0.347180
1010.1086,0.346448
1011.9722,0.343492
1013.8359,0.337693
1015.6996,0.329245
1017.5632,0.318240
1019.4269,0.305094
1021.2906,0.290878
1023.1542,0.276404
1025.0179,0.262184
1026.8816,0.249335
1028.7452,0.237770
1030.6089,0.227225
1032.4726,0.217379
1034.3362,0.208316
1036.1999,0.199630
1038.0636,0.191302
1039.9273,0.183471
1041.7909,0.176228
1043.6546,0.169286
1045.5183,0.162580
1047.3819,0.155979
1049.2456,0.149692
1051.1093,0.143876
1052.9729,0.138749
1054.8366,0.134584
1056.7003,0.131586
1058.5639,0.129693
1060.4276,0.128271
1062.2913,0.127110
1064.1550,0.126271
1066.0186,0.125515
1067.8823,0.125107
1069.7460,0.125179
1071.6096,0.125300
1073.4733,0.125277
1075.3370,0.125087
1077.2006,0.124518
1079.0643,0.123375
1080.9280,0.121903
1082.7916,0.120261
1084.6553,0.118446
1086.5190,0.116667
1088.3826,0.114759
1090.2463,0.113019
1092.1100,0.111990
1093.9737,0.111785
1095.8373,0.111910
1097.7010,0.112097
1099.5647,0.112372
1101.4283,0.112671
1103.2920,0.112654
1105.1557,0.111971
1107.0193,0.110454
1108.8830,0.108149
1110.7467,0.105073
1112.6103,0.101643
1114.4740,0.098323
1116.3377,0.095255
1118.2014,0.092599
1120.0650,0.090450
1121.9287,0.088752
1123.7924,0.087404
1125.6560,0.086143
1127.5197,0.084743
1129.3834,0.083340
1131.2470,0.081822
1133.1107,0.080073
1134.9744,0.078294
1136.8380,0.076944
1138.7017,0.075884
1140.5654,0.074955
1142.4290,0.074277
1144.2927,0.073673
1146.1564,0.072979
1148.0201,0.072386
1149.8837,0.071844
1151.7474,0.071089
1153.6111,0.070265
1155.4747,0.069440
1157.3384,0.068510
1159.2021,0.067453
1161.0657,0.066381
1162.9294,0.065403
1164.7931,0.064491
1166.6567,0.063671
1168.5204,0.062886
1170.3841,0.062113
1172.2477,0.061354
1174.1114,0.060426
1175.9751,0.059239
1177.8388,0.058046
1179.7024,0.057210
1181.5661,0.056983
1183.4298,0.057128
1185.2934,0.057313
1187.1571,0.057604
1189.0208,0.057859
1190.8844,0.058044
1192.7481,0.058371
1194.6118,0.058734
1196.4754,0.059234
1198.3391,0.060040
1200.2028,0.060955
1202.0665,0.061677
1203.9301,0.061997
1205.7938,0.061758
1207.6575,0.061407
1209.5211,0.061475
1211.3848,0.062005
1213.2485,0.062773
1215.1121,0.063607
1216.9758,0.064495
1218.8395,0.065276
1220.7031,0.065855
1222.5668,0.066383
1224.4305,0.066951
1226.2941,0.067527
1228.1578,0.067962
1230.0215,0.068220
1231.8852,0.068317
1233.7488,0.068341
1235.6125,0.068317
1237.4762,0.068286
1239.3398,0.068215
1241.2035,0.068042
1243.0672,0.067952
1244.9308,0.067980
1246.7945,0.067996
1248.6582,0.067934
1250.5218,0.067932
1252.3855,0.068031
1254.2492,0.068171
1256.1129,0.068090
1257.9765,0.067745
1259.8402,0.067449
1261.7039,0.067261
1263.5675,0.066959
1265.4312,0.066691
1267.2949,0.066607
1269.1585,0.066650
1271.0222,0.066827
1272.8859,0.067207
1274.7495,0.067711
1276.6132,0.068355
1278.4769,0.069069
1280.3405,0.069772
1282.2042,0.070307
1284.0679,0.070446
1285.9316,0.070399
1287.7952,0.070645
1289.6589,0.071023
1291.5226,0.071537
1293.3862,0.072333
1295.2499,0.073550
1297.1136,0.074894
1298.9772,0.076162
1300.8409,0.077808
1302.7046,0.079823
1304.5682,0.081553
1306.4319,0.082212
1308.2956,0.080982
1310.1592,0.077606
1312.0229,0.074078
1313.8866,0.072156
1315.7503,0.071474
1317.6139,0.071407
1319.4776,0.071481
1321.3413,0.071301
1323.2049,0.071262
1325.0686,0.071913
1326.9323,0.072919
1328.7959,0.073971
1330.6596,0.074612
1332.5233,0.074716
1334.3869,0.074035
1336.2506,0.072842
1338.1143,0.072180
1339.9780,0.072341
1341.8416,0.071553
1343.7053,0.070406
1345.5690,0.070111
1347.4326,0.070439
1349.2963,0.071096
1351.1600,0.071826
1353.0236,0.072707
1354.8873,0.073968
1356.7510,0.074980
1358.6146,0.075343
1360.4783,0.075679
1362.3420,0.077319
1364.2056,0.078615
1366.0693,0.078326
1367.9330,0.079278
1369.7967,0.080783
1371.6603,0.081411
1373.5240,0.083653
1375.3877,0.086653
1377.2513,0.087575
1379.1150,0.088810
1380.9787,0.090438
1382.8423,0.091807
1384.7060,0.093099
1386.5697,0.096128
1388.4333,0.099947
1390.2970,0.100301
1392.1607,0.099783
1394.0244,0.100839
1395.8880,0.101602
1397.7517,0.100080
1399.6154,0.098587
1401.4790,0.096022
1403.3427,0.093861
1405.2064,0.092465
1407.0700,0.089359
1408.9337,0.085226
1410.7974,0.081537
1412.6610,0.078622
1414.5247,0.076338
1416.3884,0.075209
1418.2520,0.076646
1420.1157,0.078750
1421.9794,0.077346
1423.8431,0.076131
1425.7067,0.073790
1427.5704,0.071153
1429.4341,0.070555
1431.2977,0.070830
1433.1614,0.070304
1435.0251,0.070864
1436.8887,0.074995
1438.7524,0.076773
1440.6161,0.075983
1442.4797,0.076174
1444.3434,0.076384
1446.2071,0.076881
1448.0707,0.078607
1449.9344,0.078919
1451.7981,0.076724
1453.6618,0.073378
1455.5254,0.071636
1457.3891,0.076190
1459.2528,0.077153
1461.1164,0.073796
1462.9801,0.072657
1464.8438,0.074452
1466.7074,0.074544
1468.5711,0.071985
1470.4348,0.070207
1472.2984,0.071764
1474.1621,0.074237
1476.0258,0.074334
1477.8895,0.073869
1479.7531,0.073837
1481.6168,0.075595
1483.4805,0.077095
1485.3441,0.077776
1487.2078,0.079886
1489.0715,0.084982
1490.9351,0.089883
1492.7988,0.088722
1494.6625,0.087871
1496.5261,0.091462
1498.3898,0.096159
1500.2535,0.096651
1502.1171,0.095142
1503.9808,0.093677
1505.8445,0.096408
1507.7082,0.110743
1509.5718,0.110544
1511.4355,0.107892
1513.2992,0.106922
1515.1628,0.106667
1517.0265,0.107898
1518.8902,0.106923
1520.7538,0.107162
1522.6175,0.110044
1524.4812,0.109151
1526.3448,0.109350
1528.2085,0.109675
1530.0722,0.108203
1531.9359,0.107725
1533.7995,0.109734
1535.6632,0.107821
1537.5269,0.104577
1539.3905,0.105015
1541.2542,0.109981
1543.1179,0.109102
1544.9815,0.107517
1546.8452,0.104580
1548.7089,0.102169
1550.5725,0.100750
1552.4362,0.098627
1554.2999,0.096629
1556.1635,0.093932
1558.0272,0.093863
1559.8909,0.099967
1561.7546,0.095162
1563.6182,0.091912
1565.4819,0.090637
1567.3456,0.089593
1569.2092,0.090150
1571.0729,0.090304
1572.9366,0.088001
1574.8002,0.087328
1576.6639,0.090007
1578.5276,0.090199
1580.3912,0.088935
1582.2549,0.088802
1584.1186,0.088964
1585.9822,0.089025
1587.8459,0.089065
1589.7096,0.089203
1591.5733,0.089625
1593.4369,0.090263
1595.3006,0.091117
1597.1643,0.091965
1599.0279,0.092967
1600.8916,0.094391
1602.7553,0.096180
1604.6189,0.097959
1606.4826,0.099949
1608.3463,0.102826
1610.2099,0.105800
1612.0736,0.107347
1613.9373,0.108009
1615.8010,0.110828
1617.6646,0.116074
1619.5283,0.116010
1621.3920,0.114996
1623.2556,0.117044
1625.1193,0.118999
1626.9830,0.118356
1628.8466,0.117265
1630.7103,0.114801
1632.5740,0.111497
1634.4376,0.108912
1636.3013,0.108009
1638.1650,0.106436
1640.0286,0.103421
1641.8923,0.100179
1643.7560,0.097171
1645.6197,0.095633
1647.4833,0.095317
1649.3470,0.093107
1651.2107,0.090719
1653.0743,0.090941
1654.9380,0.092007
1656.8017,0.089081
1658.6653,0.086272
1660.5290,0.083718
1662.3927,0.081420
1664.2563,0.078796
1666.1200,0.076018
1667.9837,0.073585
1669.8474,0.071378
1671.7110,0.069140
1673.5747,0.067216
1675.4384,0.065952
1677.3020,0.064032
1679.1657,0.062106
1681.0294,0.060083
1682.8930,0.058028
1684.7567,0.056424
1686.6204,0.054075
1688.4840,0.051696
1690.3477,0.048494
1692.2114,0.044852
1694.0750,0.041600
1695.9387,0.037786
1697.8024,0.034104
1699.6661,0.031868
1701.5297,0.028628
1703.3934,0.026910
1705.2571,0.025334
1707.1207,0.022957
1708.9844,0.021240
1710.8481,0.019968
1712.7117,0.018820
1714.5754,0.017763
1716.4391,0.016989
1718.3027,0.016788
1720.1664,0.016768
1722.0301,0.016484
1723.8937,0.016326
1725.7574,0.016121
1727.6211,0.015583
1729.4848,0.014918
1731.3484,0.014448
1733.2121,0.014111
1735.0758,0.014266
1736.9394,0.014310
1738.8031,0.014152
1740.6668,0.014080
1742.5304,0.014119
1744.3941,0.014047
1746.2578,0.013890
1748.1214,0.013670
1749.9851,0.013772
1751.8488,0.013910
1753.7125,0.013738
1755.5761,0.013358
1757.4398,0.013044
1759.3035,0.012866
1761.1671,0.012793
1763.0308,0.012909
1764.8945,0.012981
1766.7581,0.012887
1768.6218,0.012813
1770.4855,0.012487
1772.3491,0.012315
1774.2128,0.012600
1776.0765,0.012812
1777.9401,0.012756
1779.8038,0.012676
1781.6675,0.012774
1783.5312,0.012926
1785.3948,0.013096
1787.2585,0.012915
1789.1222,0.012595
1790.9858,0.012623
1792.8495,0.012985
1794.7132,0.013158
1796.5768,0.012993
1798.4405,0.013016
1800.3042,0.013317
1802.1678,0.013376
1804.0315,0.013268
1805.8952,0.013297
1807.7589,0.013377
1809.6225,0.013459
1811.4862,0.013497
1813.3499,0.013451
1815.2135,0.013357
1817.0772,0.013331
1818.9409,0.013421
1820.8045,0.013442
1822.6682,0.013428
1824.5319,0.013483
1826.3955,0.013410
1828.2592,0.013372
1830.1229,0.013534
1831.9865,0.013318
1833.8502,0.012841
1835.7139,0.012730
1837.5776,0.012998
1839.4412,0.013164
1841.3049,0.013023
1843.1686,0.012903
1845.0322,0.012801
1846.8959,0.012666
1848.7596,0.012804
1850.6232,0.013085
1852.4869,0.013261
1854.3506,0.013140
1856.2142,0.012737
1858.0779,0.012651
1859.9416,0.012825
1861.8052,0.013041
1863.6689,0.013174
1865.5326,0.013230
1867.3963,0.013135
1869.2599,0.012676
1871.1236,0.012619
1872.9873,0.012777
1874.8509,0.012735
1876.7146,0.012896
1878.5783,0.012909
1880.4419,0.012652
1882.3056,0.012728
1884.1693,0.012839
1886.0329,0.012729
1887.8966,0.012606
1889.7603,0.012356
1891.6240,0.012008
1893.4876,0.012243
1895.3513,0.012745
1897.2150,0.012604
1899.0786,0.012150
1900.9423,0.011984
1902.8060,0.012438
1904.6696,0.012525
1906.5333,0.012174
1908.3970,0.012233
1910.2606,0.012306
1912.1243,0.011960
1913.9880,0.011658
1915.8516,0.011718
1917.7153,0.011739
1919.5790,0.011380
1921.4427,0.011308
1923.3063,0.011319
1925.1700,0.011143
1927.0337,0.011587
1928.8973,0.011760
1930.7610,0.011483
1932.6247,0.011078
1934.4883,0.010516
1936.3520,0.010762
1938.2157,0.010904
1940.0793,0.010600
1941.9430,0.010508
1943.8067,0.010131
1945.6704,0.009924
1947.5340,0.010331
1949.3977,0.010118
1951.2614,0.008892
1953.1250,0.008052
1954.9887,0.007964
1956.8524,0.007851
1958.7160,0.007303
1960.5797,0.006714
1962.4434,0.006229
1964.3070,0.006045
1966.1707,0.006278
1968.0344,0.006625
1969.8980,0.005761
1971.7617,0.003943
1973.6254,0.003031
1975.4891,0.002921
1977.3527,0.003048
1979.2164,0.003872
1981.0801,0.005317
1982.9437,0.005434
1984.8074,0.005740
1986.6711,0.006716
1988.5347,0.007130
1990.3984,0.006972
1992.2621,0.005874
1994.1257,0.005658
1995.9894,0.006571
1997.8531,0.006724
1999.7167,0.006323
2001.5804,0.005751
2003.4441,0.005557
2005.3078,0.005475
2007.1714,0.005206
2009.0351,0.005740
2010.8988,0.005146
2012.7624,0.003264
2014.6261,0.003270
2016.4898,0.003712
2018.3534,0.003186
2020.2171,0.003035
2022.0808,0.003884
2023.9444,0.004544
2025.8081,0.004529
2027.6718,0.004355
2029.5355,0.003201
2031.3991,0.002213
2033.2628,0.003126
2035.1265,0.003696
2036.9901,0.003693
2038.8538,0.004165
2040.7175,0.004669
2042.5811,0.005766
2044.4448,0.006484
2046.3085,0.006474
2048.1721,0.007387
2050.0358,0.008614
2051.8995,0.009739
2053.7631,0.010400
2055.6268,0.010059
2057.4905,0.009884
2059.3542,0.009684
2061.2178,0.009853
2063.0815,0.010631
2064.9452,0.010730
2066.8088,0.010803
2068.6725,0.011309
2070.5362,0.011851
2072.3998,0.012196
2074.2635,0.011800
2076.1272,0.011685
2077.9908,0.012363
2079.8545,0.012662
2081.7182,0.013038
2083.5819,0.013523
2085.4455,0.013204
2087.3092,0.012788
2089.1729,0.012985
2091.0365,0.013411
2092.9002,0.013205
2094.7639,0.012671
2096.6275,0.012660
2098.4912,0.013042
2100.3549,0.012969
2102.2185,0.012420
2104.0822,0.012868
2105.9459,0.014147
2107.8095,0.014392
2109.6732,0.013821
2111.5369,0.013508
2113.4006,0.013826
2115.2642,0.014314
2117.1279,0.014226
2118.9916,0.014027
2120.8552,0.014100
2122.7189,0.013645
2124.5826,0.012945
2126.4462,0.012674
2128.3099,0.012624
2130.1736,0.012749
2132.0372,0.012463
2133.9009,0.012297
2135.7646,0.011911
2137.6282,0.011088
2139.4919,0.009680
2141.3556,0.008031
2143.2193,0.007827
2145.0829,0.008180
2146.9466,0.008051
2148.8103,0.007514
2150.6739,0.006257
2152.5376,0.005472
2154.4013,0.005543
2156.2649,0.004479
2158.1286,0.001365
2159.9923,-0.000240
2161.8559,0.001887
2163.7196,0.005099
2165.5833,0.005673
2167.4470,0.005175
2169.3106,0.006795
2171.1743,0.007767
2173.0380,0.007270
2174.9016,0.007057
2176.7653,0.006743
2178.6290,0.006927
2180.4926,0.008217
2182.3563,0.009465
2184.2200,0.010038
2186.0836,0.009828
2187.9473,0.009463
2189.8110,0.009201
2191.6746,0.009302
2193.5383,0.009369
2195.4020,0.009474
2197.2657,0.010351
2199.1293,0.010772
2200.9930,0.010667
2202.8567,0.011078
2204.7203,0.011482
2206.5840,0.011814
2208.4477,0.011630
2210.3113,0.011506
2212.1750,0.011418
2214.0387,0.011865
2215.9023,0.012576
2217.7660,0.012384
2219.6297,0.012721
2221.4934,0.013220
2223.3570,0.012919
2225.2207,0.012220
2227.0844,0.012263
2228.9480,0.013371
2230.8117,0.013826
2232.6754,0.013618
2234.5390,0.014387
2236.4027,0.015140
2238.2664,0.014671
2240.1300,0.014617
2241.9937,0.015177
2243.8574,0.015054
2245.7210,0.014499
2247.5847,0.014215
2249.4484,0.014679
2251.3121,0.015292
2253.1757,0.015554
2255.0394,0.015842
2256.9031,0.016371
2258.7667,0.016386
2260.6304,0.015967
2262.4941,0.016068
2264.3577,0.016016
2266.2214,0.016618
2268.0851,0.017622
2269.9487,0.017612
2271.8124,0.017372
2273.6761,0.017410
2275.5397,0.017922
2277.4034,0.018462
2279.2671,0.018225
2281.1308,0.017897
2282.9944,0.018109
2284.8581,0.018870
2286.7218,0.019322
2288.5854,0.019115
2290.4491,0.019216
2292.3128,0.019659
2294.1764,0.019572
2296.0401,0.019217
2297.9038,0.019436
2299.7674,0.019679
2301.6311,0.019366
2303.4948,0.019462
2305.3585,0.019896
2307.2221,0.019773
2309.0858,0.019758
2310.9495,0.020073
2312.8131,0.019958
2314.6768,0.019853
2316.5405,0.020186
2318.4041,0.020564
2320.2678,0.020493
2322.1315,0.020219
2323.9951,0.020592
2325.8588,0.020632
2327.7225,0.019999
2329.5861,0.019579
2331.4498,0.019470
2333.3135,0.019673
2335.1772,0.019856
2337.0408,0.019936
2338.9045,0.020093
2340.7682,0.020233
2342.6318,0.020195
2344.4955,0.020483
2346.3592,0.020749
2348.2228,0.020487
2350.0865,0.020006
2351.9502,0.019370
2353.8138,0.018943
2355.6775,0.019260
2357.5412,0.019530
2359.4049,0.019583
2361.2685,0.019612
2363.1322,0.019186
2364.9959,0.018893
2366.8595,0.019199
2368.7232,0.019670
2370.5869,0.020128
2372.4505,0.020359
2374.3142,0.020579
2376.1779,0.021195
2378.0415,0.021724
2379.9052,0.021380
2381.7689,0.020722
2383.6325,0.020782
2385.4962,0.020881
2387.3599,0.020471
2389.2236,0.020417
2391.0872,0.020679
2392.9509,0.020756
2394.8146,0.020837
2396.6782,0.020918
2398.5419,0.020992
2400.4056,0.020993
2402.2692,0.020965
2404.1329,0.020861
2405.9966,0.020717
2407.8602,0.021105
2409.7239,0.021488
2411.5876,0.021436
2413.4512,0.021424
2415.3149,0.021438
2417.1786,0.021351
2419.0423,0.021461
2420.9059,0.021565
2422.7696,0.021372
2424.6333,0.021278
2426.4969,0.021492
2428.3606,0.021724
2430.2243,0.021867
2432.0879,0.021938
2433.9516,0.021769
2435.8153,0.021588
2437.6789,0.021507
2439.5426,0.021684
2441.4063,0.022312
2443.2700,0.022432
2445.1336,0.022147
2446.9973,0.022578
2448.8610,0.022925
2450.7246,0.022517
2452.5883,0.022115
2454.4520,0.021953
2456.3156,0.021935
2458.1793,0.022251
2460.0430,0.022670
2461.9066,0.022820
2463.7703,0.022778
2465.6340,0.022930
2467.4976,0.023033
2469.3613,0.022978
2471.2250,0.023083
2473.0887,0.023017
2474.9523,0.023231
2476.8160,0.023586
2478.6797,0.023336
2480.5433,0.023154
2482.4070,0.023473
2484.2707,0.023737
2486.1343,0.023445
2487.9980,0.023029
2489.8617,0.023246
2491.7253,0.023772
2493.5890,0.024115
2495.4527,0.024293
2497.3164,0.024520
2499.1800,0.024782
2501.0437,0.024719
2502.9074,0.024348
2504.7710,0.024365
2506.6347,0.024697
2508.4984,0.024624
2510.3620,0.024315
2512.2257,0.024167
2514.0894,0.024444
2515.9530,0.024894
2517.8167,0.024918
2519.6804,0.024808
2521.5440,0.024854
2523.4077,0.024850
2525.2714,0.024993
2527.1351,0.025469
