Wavenumber,Intensity
650.4205,0.165339
652.2841,0.169140
654.1478,0.173195
656.0115,0.177834
657.8751,0.182883
659.7388,0.188546
661.6025,0.197400
663.4661,0.203809
665.3298,0.207063
667.1935,0.210983
669.0571,0.211246
670.9208,0.198037
672.7845,0.186979
674.6481,0.176495
676.5118,0.169874
678.3755,0.166063
680.2392,0.163723
682.1028,0.160012
683.9665,0.155682
685.8302,0.150313
687.6938,0.147458
689.5575,0.146228
691.4212,0.143566
693.2848,0.137777
695.1485,0.132282
697.0122,0.128222
698.8758,0.125593
700.7395,0.123800
702.6032,0.122100
704.4669,0.119221
706.3305,0.116496
708.1942,0.113166
710.0579,0.109496
711.9215,0.105406
713.7852,0.101254
715.6489,0.098265
717.5125,0.095313
719.3762,0.091831
721.2399,0.089310
723.1035,0.087405
724.9672,0.084634
726.8309,0.081311
728.6945,0.079436
730.5582,0.077721
732.4219,0.076246
734.2856,0.076499
736.1492,0.078183
738.0129,0.080373
739.8766,0.083495
741.7402,0.088048
743.6039,0.093614
745.4676,0.097995
747.3312,0.100127
749.1949,0.100062
751.0586,0.099263
752.9222,0.098415
754.7859,0.098265
756.6496,0.098630
758.5132,0.098506
760.3769,0.097814
762.2406,0.096676
764.1043,0.096184
765.9679,0.096365
767.8316,0.096555
769.6953,0.096853
771.5589,0.097389
773.4226,0.097867
775.2863,0.098148
777.1499,0.099143
779.0136,0.099684
780.8773,0.100192
782.7409,0.101218
784.6046,0.102483
786.4683,0.104364
788.3320,0.106735
790.1956,0.108532
792.0593,0.109029
793.9230,0.107812
795.7866,0.105445
797.6503,0.102329
799.5140,0.099457
801.3776,0.097925
803.2413,0.098168
805.1050,0.098328
806.9686,0.097890
808.8323,0.096946
810.6960,0.095571
812.5596,0.093579
814.4233,0.091977
816.2870,0.091108
818.1507,0.090412
820.0143,0.089809
821.8780,0.089142
823.7417,0.088156
825.6053,0.087485
827.4690,0.087322
829.3327,0.087034
831.1963,0.086524
833.0600,0.085546
834.9237,0.084110
836.7873,0.083743
838.6510,0.084115
840.5147,0.084922
842.3784,0.086554
844.2420,0.089650
846.1057,0.093605
847.9694,0.094983
849.8330,0.091606
851.6967,0.087074
853.5604,0.084197
855.4240,0.082244
857.2877,0.080022
859.1514,0.077079
861.0150,0.074526
862.8787,0.073256
864.7424,0.072749
866.6060,0.072688
868.4697,0.073104
870.3334,0.073815
872.1971,0.074446
874.0607,0.074973
875.9244,0.075680
877.7881,0.076577
879.6517,0.077535
881.5154,0.078475
883.3791,0.078912
885.2427,0.078905
887.1064,0.078797
888.9701,0.078826
890.8337,0.079278
892.6974,0.080276
894.5611,0.081697
896.4247,0.082880
898.2884,0.083230
900.1521,0.083239
902.0158,0.083279
903.8794,0.083704
905.7431,0.084672
907.6068,0.085901
909.4704,0.087639
911.3341,0.089795
913.1978,0.091897
915.0614,0.093756
916.9251,0.094445
918.7888,0.093861
920.6524,0.093369
922.5161,0.093822
924.3798,0.094704
926.2435,0.095465
928.1071,0.095874
929.9708,0.096201
931.8345,0.096753
933.6981,0.097770
935.5618,0.099313
937.4255,0.100878
939.2891,0.102280
941.1528,0.103850
943.0165,0.105587
944.8801,0.107445
946.7438,0.109267
948.6075,0.111151
950.4711,0.113196
952.3348,0.115463
954.1985,0.117805
956.0622,0.120272
957.9258,0.123028
959.7895,0.125905
961.6532,0.128890
963.5168,0.132153
965.3805,0.135540
967.2442,0.139014
969.1078,0.142345
970.9715,0.145093
972.8352,0.147215
974.6988,0.149297
976.5625,0.151828
978.4262,0.155341
980.2899,0.159271
982.1535,0.161176
984.0172,0.158806
985.8809,0.155438
987.7445,0.154635
989.6082,0.155625
991.4719,0.157229
993.3355,0.159100
995.1992,0.160200
997.0629,0.160317
998.9265,0.160496
1000.7902,0.161479
1002.6539,0.163165
1004.5175,0.165263
1006.3812,0.167096
1008.2449,0.168220
1010.1086,0.168448
1011.9722,0.167649
1013.8359,0.165694
1015.6996,0.162467
1017.5632,0.157993
1019.4269,0.152786
1021.2906,0.147198
1023.1542,0.141361
1025.0179,0.135493
1026.8816,0.130191
1028.7452,0.125754
1030.6089,0.122358
1032.4726,0.119769
1034.3362,0.117487
1036.1999,0.114634
1038.0636,0.111134
1039.9273,0.107900
1041.7909,0.105475
1043.6546,0.103545
1045.5183,0.101541
1047.3819,0.098976
1049.2456,0.095964
1051.1093,0.093068
1052.9729,0.090844
1054.8366,0.089125
1056.7003,0.088082
1058.5639,0.087914
1060.4276,0.088166
1062.2913,0.088309
1064.1550,0.088546
1066.0186,0.089260
1067.8823,0.090078
1069.7460,0.090863
1071.6096,0.092122
1073.4733,0.093706
1075.3370,0.094946
1077.2006,0.095357
1079.0643,0.095141
1080.9280,0.094925
1082.7916,0.094880
1084.6553,0.094909
1086.5190,0.095035
1088.3826,0.095477
1090.2463,0.096250
1092.1100,0.097444
1093.9737,0.099142
1095.8373,0.100790
1097.7010,0.102131
1099.5647,0.103161
1101.4283,0.104016
1103.2920,0.104736
1105.1557,0.105381
1107.0193,0.105663
1108.8830,0.105471
1110.7467,0.105035
1112.6103,0.104284
1114.4740,0.103277
1116.3377,0.102135
1118.2014,0.100889
1120.0650,0.099298
1121.9287,0.097610
1123.7924,0.096423
1125.6560,0.096154
1127.5197,0.096789
1129.3834,0.097319
1131.2470,0.096910
1133.1107,0.095291
1134.9744,0.092362
1136.8380,0.088375
1138.7017,0.084075
1140.5654,0.079916
1142.4290,0.076112
1144.2927,0.072822
1146.1564,0.069919
1148.0201,0.067453
1149.8837,0.065558
1151.7474,0.064231
1153.6111,0.063456
1155.4747,0.063210
1157.3384,0.063323
1159.2021,0.063648
1161.0657,0.064070
1162.9294,0.064606
1164.7931,0.065088
1166.6567,0.065455
1168.5204,0.066000
1170.3841,0.067123
1172.2477,0.068757
1174.1114,0.070355
1175.9751,0.071121
1177.8388,0.071133
1179.7024,0.071163
1181.5661,0.071461
1183.4298,0.071515
1185.2934,0.070841
1187.1571,0.069263
1189.0208,0.067060
1190.8844,0.064831
1192.7481,0.062806
1194.6118,0.061088
1196.4754,0.059867
1198.3391,0.058926
1200.2028,0.058065
1202.0665,0.057159
1203.9301,0.055743
1205.7938,0.053889
1207.6575,0.052520
1209.5211,0.051861
1211.3848,0.051653
1213.2485,0.051746
1215.1121,0.051857
1216.9758,0.051594
1218.8395,0.050771
1220.7031,0.049604
1222.5668,0.048542
1224.4305,0.047908
1226.2941,0.047677
1228.1578,0.047560
1230.0215,0.047405
1231.8852,0.047332
1233.7488,0.047321
1235.6125,0.047292
1237.4762,0.047283
1239.3398,0.047273
1241.2035,0.047235
1243.0672,0.047169
1244.9308,0.047246
1246.7945,0.047444
1248.6582,0.047732
1250.5218,0.048056
1252.3855,0.048416
1254.2492,0.048912
1256.1129,0.049518
1257.9765,0.050125
1259.8402,0.050806
1261.7039,0.051453
1263.5675,0.051735
1265.4312,0.051369
1267.2949,0.050184
1269.1585,0.048758
1271.0222,0.048191
1272.8859,0.048547
1274.7495,0.049342
1276.6132,0.050474
1278.4769,0.051788
1280.3405,0.053069
1282.2042,0.054285
1284.0679,0.055043
1285.9316,0.055333
1287.7952,0.055461
1289.6589,0.055604
1291.5226,0.056365
1293.3862,0.058058
1295.2499,0.060256
1297.1136,0.062564
1298.9772,0.064906
1300.8409,0.067743
1302.7046,0.071276
1304.5682,0.074782
1306.4319,0.076799
1308.2956,0.076425
1310.1592,0.074561
1312.0229,0.073398
1313.8866,0.074047
1315.7503,0.076050
1317.6139,0.079011
1319.4776,0.082537
1321.3413,0.085910
1323.2049,0.089632
1325.0686,0.093984
1326.9323,0.097063
1328.7959,0.096528
1330.6596,0.091948
1332.5233,0.084647
1334.3869,0.075855
1336.2506,0.067090
1338.1143,0.060374
1339.9780,0.056361
1341.8416,0.054098
1343.7053,0.053073
1345.5690,0.053328
1347.4326,0.054839
1349.2963,0.057277
1351.1600,0.059904
1353.0236,0.062424
1354.8873,0.064562
1356.7510,0.065230
1358.6146,0.063750
1360.4783,0.061032
1362.3420,0.058710
1364.2056,0.057005
1366.0693,0.056442
1367.9330,0.057929
1369.7967,0.060536
1371.6603,0.063144
1373.5240,0.067174
1375.3877,0.071007
1377.2513,0.071755
1379.1150,0.071458
1380.9787,0.070410
1382.8423,0.068992
1384.7060,0.068358
1386.5697,0.069876
1388.4333,0.072161
1390.2970,0.072473
1392.1607,0.072674
1394.0244,0.074667
1395.8880,0.077318
1397.7517,0.079169
1399.6154,0.081504
1401.4790,0.082759
1403.3427,0.084603
1405.2064,0.088034
1407.0700,0.089108
1408.9337,0.088100
1410.7974,0.087145
1412.6610,0.085763
1414.5247,0.083992
1416.3884,0.082971
1418.2520,0.084058
1420.1157,0.084496
1421.9794,0.081152
1423.8431,0.076505
1425.7067,0.070140
1427.5704,0.064819
1429.4341,0.061878
1431.2977,0.060469
1433.1614,0.059759
1435.0251,0.060992
1436.8887,0.065964
1438.7524,0.068675
1440.6161,0.068555
1442.4797,0.068416
1444.3434,0.067668
1446.2071,0.067919
1448.0707,0.069973
1449.9344,0.070675
1451.7981,0.068821
1453.6618,0.065471
1455.5254,0.063938
1457.3891,0.067887
1459.2528,0.070172
1461.1164,0.069422
1462.9801,0.070132
1464.8438,0.071504
1466.7074,0.070065
1468.5711,0.067728
1470.4348,0.067545
1472.2984,0.070478
1474.1621,0.072202
1476.0258,0.069124
1477.8895,0.064489
1479.7531,0.061954
1481.6168,0.062219
1483.4805,0.062933
1485.3441,0.063542
1487.2078,0.065280
1489.0715,0.068804
1490.9351,0.071762
1492.7988,0.070555
1494.6625,0.069796
1496.5261,0.071840
1498.3898,0.073861
1500.2535,0.073624
1502.1171,0.072600
1503.9808,0.072047
1505.8445,0.075633
1507.7082,0.086683
1509.5718,0.086896
1511.4355,0.085435
1513.2992,0.084895
1515.1628,0.084421
1517.0265,0.084376
1518.8902,0.082998
1520.7538,0.082985
1522.6175,0.083686
1524.4812,0.082636
1526.3448,0.082907
1528.2085,0.083048
1530.0722,0.082033
1531.9359,0.082695
1533.7995,0.085877
1535.6632,0.085885
1537.5269,0.085382
1539.3905,0.091121
1541.2542,0.100652
1543.1179,0.101313
1544.9815,0.103310
1546.8452,0.104584
1548.7089,0.106027
1550.5725,0.109191
1552.4362,0.110574
1554.2999,0.111096
1556.1635,0.110876
1558.0272,0.113739
1559.8909,0.123255
1561.7546,0.116653
1563.6182,0.111922
1565.4819,0.109545
1567.3456,0.107235
1569.2092,0.106294
1571.0729,0.104812
1572.9366,0.101204
1574.8002,0.098710
1576.6639,0.097665
1578.5276,0.095345
1580.3912,0.092919
1582.2549,0.091364
1584.1186,0.090591
1585.9822,0.090276
1587.8459,0.090520
1589.7096,0.091468
1591.5733,0.092525
1593.4369,0.094003
1595.3006,0.095854
1597.1643,0.097344
1599.0279,0.098449
1600.8916,0.099530
1602.7553,0.100747
1604.6189,0.101622
1606.4826,0.101857
1608.3463,0.102152
1610.2099,0.101904
1612.0736,0.100640
1613.9373,0.099264
1615.8010,0.099423
1617.6646,0.100201
1619.5283,0.098485
1621.3920,0.096801
1623.2556,0.096543
1625.1193,0.095881
1626.9830,0.094725
1628.8466,0.093185
1630.7103,0.090311
1632.5740,0.086928
1634.4376,0.084084
1636.3013,0.081681
1638.1650,0.079248
1640.0286,0.076957
1641.8923,0.074418
1643.7560,0.071801
1645.6197,0.069940
1647.4833,0.068278
1649.3470,0.065319
1651.2107,0.063119
1653.0743,0.062256
1654.9380,0.062235
1656.8017,0.062595
1658.6653,0.063397
1660.5290,0.064873
1662.3927,0.067875
1664.2563,0.070810
1666.1200,0.071871
1667.9837,0.074136
1669.8474,0.079329
1671.7110,0.082646
1673.5747,0.083095
1675.4384,0.083658
1677.3020,0.081752
1679.1657,0.077722
1681.0294,0.072382
1682.8930,0.066894
1684.7567,0.061578
1686.6204,0.057864
1688.4840,0.054679
1690.3477,0.049870
1692.2114,0.045172
1694.0750,0.041439
1695.9387,0.036887
1697.8024,0.032830
1699.6661,0.031372
1701.5297,0.029040
1703.3934,0.028074
1705.2571,0.027407
1707.1207,0.025753
1708.9844,0.024300
1710.8481,0.022731
1712.7117,0.020908
1714.5754,0.019067
1716.4391,0.017427
1718.3027,0.016476
1720.1664,0.015959
1722.0301,0.015683
1723.8937,0.015045
1725.7574,0.013827
1727.6211,0.012654
1729.4848,0.011462
1731.3484,0.010165
1733.2121,0.009198
1735.0758,0.008196
1736.9394,0.008092
1738.8031,0.008265
1740.6668,0.007914
1742.5304,0.007686
1744.3941,0.007724
1746.2578,0.007601
1748.1214,0.007204
1749.9851,0.006839
1751.8488,0.006721
1753.7125,0.006861
1755.5761,0.007048
1757.4398,0.006846
1759.3035,0.006636
1761.1671,0.006777
1763.0308,0.006760
1764.8945,0.006612
1766.7581,0.006594
1768.6218,0.006479
1770.4855,0.006219
1772.3491,0.005776
1774.2128,0.005719
1776.0765,0.006193
1777.9401,0.006422
1779.8038,0.006465
1781.6675,0.006413
1783.5312,0.006398
1785.3948,0.006427
1787.2585,0.006399
1789.1222,0.006302
1790.9858,0.006048
1792.8495,0.005683
1794.7132,0.005716
1796.5768,0.005952
1798.4405,0.006142
1800.3042,0.006409
1802.1678,0.006431
1804.0315,0.006367
1805.8952,0.006452
1807.7589,0.006334
1809.6225,0.006179
1811.4862,0.006130
1813.3499,0.006093
1815.2135,0.006145
1817.0772,0.006095
1818.9409,0.006069
1820.8045,0.006291
1822.6682,0.006442
1824.5319,0.006239
1826.3955,0.005886
1828.2592,0.005674
1830.1229,0.005365
1831.9865,0.005277
1833.8502,0.005702
1835.7139,0.005886
1837.5776,0.005784
1839.4412,0.005826
1841.3049,0.005813
1843.1686,0.005586
1845.0322,0.005094
1846.8959,0.005120
1848.7596,0.005680
1850.6232,0.005698
1852.4869,0.005325
1854.3506,0.005301
1856.2142,0.005601
1858.0779,0.005837
1859.9416,0.005858
1861.8052,0.005664
1863.6689,0.005397
1865.5326,0.005388
1867.3963,0.005348
1869.2599,0.005098
1871.1236,0.005347
1872.9873,0.005605
1874.8509,0.005533
1876.7146,0.005250
1878.5783,0.005205
1880.4419,0.005399
1882.3056,0.005490
1884.1693,0.005181
1886.0329,0.004650
1887.8966,0.004541
1889.7603,0.004562
1891.6240,0.004908
1893.4876,0.005428
1895.3513,0.005322
1897.2150,0.005058
1899.0786,0.005189
1900.9423,0.005194
1902.8060,0.004717
1904.6696,0.004440
1906.5333,0.005033
1908.3970,0.005426
1910.2606,0.004898
1912.1243,0.004618
1913.9880,0.004791
1915.8516,0.004983
1917.7153,0.004745
1919.5790,0.004108
1921.4427,0.004148
1923.3063,0.004151
1925.1700,0.003953
1927.0337,0.004510
1928.8973,0.004647
1930.7610,0.004135
1932.6247,0.003984
1934.4883,0.003938
1936.3520,0.003685
1938.2157,0.003361
1940.0793,0.003362
1941.9430,0.003668
1943.8067,0.003638
1945.6704,0.003614
1947.5340,0.002959
1949.3977,0.001894
1951.2614,0.002068
1953.1250,0.002135
1954.9887,0.001265
1956.8524,0.001263
1958.7160,0.001680
1960.5797,0.001295
1962.4434,0.001528
1964.3070,0.002159
1966.1707,0.001180
1968.0344,-0.000076
1969.8980,-0.000830
1971.7617,-0.001864
1973.6254,-0.002398
1975.4891,-0.001562
1977.3527,-0.001226
1979.2164,-0.000181
1981.0801,0.001388
1982.9437,0.001553
1984.8074,0.001457
1986.6711,0.001415
1988.5347,0.001066
1990.3984,0.001019
1992.2621,0.000473
1994.1257,0.000504
1995.9894,0.001532
1997.8531,0.002171
1999.7167,0.002360
2001.5804,0.002175
2003.4441,0.001396
2005.3078,0.000133
2007.1714,-0.000470
2009.0351,-0.000168
2010.8988,-0.000462
2012.7624,-0.000362
2014.6261,-0.000022
2016.4898,-0.000409
2018.3534,-0.000392
2020.2171,-0.000182
2022.0808,-0.000911
2023.9444,-0.000949
2025.8081,-0.001343
2027.6718,-0.002119
2029.5355,-0.000897
2031.3991,-0.000015
2033.2628,-0.000413
2035.1265,0.000250
2036.9901,0.000790
2038.8538,0.001311
2040.7175,0.001479
2042.5811,0.001888
2044.4448,0.003266
2046.3085,0.003194
2048.1721,0.002833
2050.0358,0.003761
2051.8995,0.003964
2053.7631,0.004040
2055.6268,0.004713
2057.4905,0.005073
2059.3542,0.005318
2061.2178,0.005093
2063.0815,0.004460
2064.9452,0.004920
2066.8088,0.006067
2068.6725,0.006333
2070.5362,0.005841
2072.3998,0.005717
2074.2635,0.005772
2076.1272,0.005819
2077.9908,0.006195
2079.8545,0.007207
2081.7182,0.007430
2083.5819,0.006989
2085.4455,0.007123
2087.3092,0.007081
2089.1729,0.006308
2091.0365,0.005844
2092.9002,0.005873
2094.7639,0.006291
2096.6275,0.007192
2098.4912,0.007477
2100.3549,0.007065
2102.2185,0.006802
2104.0822,0.006786
2105.9459,0.007281
2107.8095,0.007557
2109.6732,0.007544
2111.5369,0.007832
2113.4006,0.007625
2115.2642,0.007354
2117.1279,0.007490
2118.9916,0.006725
2120.8552,0.006563
2122.7189,0.006740
2124.5826,0.005984
2126.4462,0.005602
2128.3099,0.005354
2130.1736,0.004748
2132.0372,0.004345
2133.9009,0.004648
2135.7646,0.005285
2137.6282,0.004798
2139.4919,0.004314
2141.3556,0.003414
2143.2193,0.002321
2145.0829,0.001715
2146.9466,0.001833
2148.8103,0.001491
2150.6739,0.000550
2152.5376,0.000029
2154.4013,-0.001381
2156.2649,-0.003244
2158.1286,-0.002809
2159.9923,-0.000203
2161.8559,0.001900
2163.7196,0.002042
2165.5833,0.001402
2167.4470,0.001354
2169.3106,0.002749
2171.1743,0.002841
2173.0380,0.001708
2174.9016,0.000828
2176.7653,0.001446
2178.6290,0.003049
2180.4926,0.002005
2182.3563,0.000538
2184.2200,0.002265
2186.0836,0.003372
2187.9473,0.003352
2189.8110,0.003055
2191.6746,0.003334
2193.5383,0.004587
2195.4020,0.005175
2197.2657,0.005016
2199.1293,0.004994
2200.9930,0.005270
2202.8567,0.005220
2204.7203,0.005257
2206.5840,0.005020
2208.4477,0.004083
2210.3113,0.003997
2212.1750,0.004406
2214.0387,0.004894
2215.9023,0.006316
2217.7660,0.007165
2219.6297,0.006726
2221.4934,0.006495
2223.3570,0.006441
2225.2207,0.006369
2227.0844,0.006787
2228.9480,0.006980
2230.8117,0.006438
2232.6754,0.005715
2234.5390,0.005912
2236.4027,0.006786
2238.2664,0.007066
2240.1300,0.006992
2241.9937,0.007286
2243.8574,0.007943
2245.7210,0.008120
2247.5847,0.008066
2249.4484,0.008149
2251.3121,0.007971
2253.1757,0.008075
2255.0394,0.008555
2256.9031,0.008965
2258.7667,0.009592
2260.6304,0.009991
2262.4941,0.009981
2264.3577,0.009506
2266.2214,0.009223
2268.0851,0.009674
2269.9487,0.009949
2271.8124,0.009836
2273.6761,0.009710
2275.5397,0.009800
2277.4034,0.010238
2279.2671,0.010668
2281.1308,0.011465
2282.9944,0.011709
2284.8581,0.011583
2286.7218,0.012038
2288.5854,0.012019
2290.4491,0.011729
2292.3128,0.011777
2294.1764,0.011485
2296.0401,0.011248
2297.9038,0.011637
2299.7674,0.012265
2301.6311,0.012518
2303.4948,0.012420
2305.3585,0.012447
2307.2221,0.012329
2309.0858,0.012357
2310.9495,0.012641
2312.8131,0.012355
2314.6768,0.011914
2316.5405,0.012178
2318.4041,0.012661
2320.2678,0.012965
2322.1315,0.013327
2323.9951,0.013533
2325.8588,0.013124
2327.7225,0.012280
2329.5861,0.011982
2331.4498,0.012166
2333.3135,0.012376
2335.1772,0.012239
2337.0408,0.012053
2338.9045,0.012225
2340.7682,0.012424
2342.6318,0.012537
2344.4955,0.012621
2346.3592,0.012504
2348.2228,0.012331
2350.0865,0.012447
2351.9502,0.012414
2353.8138,0.012239
2355.6775,0.012089
2357.5412,0.012008
2359.4049,0.011846
2361.2685,0.011404
2363.1322,0.011406
2364.9959,0.011759
2366.8595,0.012189
2368.7232,0.012274
2370.5869,0.012304
2372.4505,0.012286
2374.3142,0.012208
2376.1779,0.012617
2378.0415,0.012821
2379.9052,0.012410
2381.7689,0.012381
2383.6325,0.012731
2385.4962,0.012710
2387.3599,0.012768
2389.2236,0.012866
2391.0872,0.012776
2392.9509,0.012839
2394.8146,0.012949
2396.6782,0.013079
2398.5419,0.013068
2400.4056,0.012913
2402.2692,0.012974
2404.1329,0.013386
2405.9966,0.013401
2407.8602,0.013204
2409.7239,0.013218
2411.5876,0.013330
2413.4512,0.013248
2415.3149,0.013305
2417.1786,0.013210
2419.0423,0.013195
2420.9059,0.013515
2422.7696,0.013733
2424.6333,0.013617
2426.4969,0.013706
2428.3606,0.014060
2430.2243,0.014259
2432.0879,0.014109
2433.9516,0.013914
2435.8153,0.014112
2437.6789,0.014509
2439.5426,0.014545
2441.4063,0.014611
2443.2700,0.014479
2445.1336,0.014220
2446.9973,0.014614
2448.8610,0.015131
2450.7246,0.015107
2452.5883,0.014800
2454.4520,0.014783
2456.3156,0.015008
2458.1793,0.015428
2460.0430,0.015248
2461.9066,0.014620
2463.7703,0.014932
2465.6340,0.015363
2467.4976,0.015139
2469.3613,0.015038
2471.2250,0.015463
2473.0887,0.015831
2474.9523,0.015925
2476.8160,0.015954
2478.6797,0.015505
2480.5433,0.015422
2482.4070,0.015802
2484.2707,0.015955
2486.1343,0.016390
2487.9980,0.016785
2489.8617,0.016575
2491.7253,0.016411
2493.5890,0.016521
2495.4527,0.016788
2497.3164,0.017011
2499.1800,0.017289
2501.0437,0.017494
2502.9074,0.017674
2504.7710,0.017829
2506.6347,0.017759
2508.4984,0.017264
2510.3620,0.016921
2512.2257,0.017240
2514.0894,0.018036
2515.9530,0.018486
2517.8167,0.018447
2519.6804,0.018587
2521.5440,0.018835
2523.4077,0.018514
2525.2714,0.018142
