Wavenumber,Intensity
650.4205,0.043102
652.2841,0.038996
654.1478,0.040543
656.0115,0.040179
657.8751,0.034613
659.7388,0.029047
661.6025,0.024890
663.4661,0.023160
665.3298,0.021754
667.1935,0.020289
669.0571,0.018011
670.9208,0.017939
672.7845,0.018595
674.6481,0.016880
676.5118,0.015084
678.3755,0.016701
680.2392,0.017434
682.1028,0.016327
683.9665,0.015652
685.8302,0.016072
687.6938,0.016396
689.5575,0.016668
691.4212,0.017645
693.2848,0.019045
695.1485,0.019901
697.0122,0.019004
698.8758,0.018167
700.7395,0.018640
702.6032,0.019179
704.4669,0.018620
706.3305,0.017601
708.1942,0.017276
710.0579,0.017842
711.9215,0.018211
713.7852,0.018219
715.6489,0.017980
717.5125,0.017711
719.3762,0.017355
721.2399,0.016597
723.1035,0.016432
724.9672,0.016987
726.8309,0.016914
728.6945,0.016446
730.5582,0.015799
732.4219,0.015217
734.2856,0.015312
736.1492,0.015922
738.0129,0.015884
739.8766,0.015410
741.7402,0.015173
743.6039,0.015939
745.4676,0.016410
747.3312,0.016857
749.1949,0.016856
751.0586,0.016312
752.9222,0.016397
754.7859,0.016872
756.6496,0.016736
758.5132,0.016599
760.3769,0.016880
762.2406,0.016913
764.1043,0.016996
765.9679,0.017483
767.8316,0.018134
769.6953,0.017857
771.5589,0.017752
773.4226,0.018150
775.2863,0.018572
777.1499,0.018711
779.0136,0.018326
780.8773,0.018628
782.7409,0.018987
784.6046,0.019297
786.4683,0.019592
788.3320,0.019897
790.1956,0.020586
792.0593,0.021385
793.9230,0.021653
795.7866,0.021744
797.6503,0.022005
799.5140,0.022225
801.3776,0.022467
803.2413,0.022753
805.1050,0.023402
806.9686,0.024482
808.8323,0.025001
810.6960,0.024966
812.5596,0.025163
814.4233,0.025508
816.2870,0.025845
818.1507,0.026602
820.0143,0.027278
821.8780,0.027611
823.7417,0.028774
825.6053,0.030585
827.4690,0.032286
829.3327,0.034623
831.1963,0.037161
833.0600,0.039865
834.9237,0.043161
836.7873,0.046035
838.6510,0.047653
840.5147,0.047506
842.3784,0.046095
844.2420,0.044836
846.1057,0.042693
847.9694,0.037975
849.8330,0.030547
851.6967,0.022490
853.5604,0.016278
855.4240,0.012686
857.2877,0.010966
859.1514,0.010216
861.0150,0.009829
862.8787,0.009649
864.7424,0.009979
866.6060,0.010473
868.4697,0.010943
870.3334,0.011652
872.1971,0.012419
874.0607,0.013402
875.9244,0.014729
877.7881,0.016450
879.6517,0.018526
881.5154,0.020981
883.3791,0.023246
885.2427,0.024360
887.1064,0.023241
888.9701,0.020593
890.8337,0.017594
892.6974,0.014964
894.5611,0.013104
896.4247,0.011926
898.2884,0.011377
900.1521,0.011252
902.0158,0.011398
903.8794,0.011685
905.7431,0.011956
907.6068,0.012348
909.4704,0.012882
911.3341,0.013453
913.1978,0.014198
915.0614,0.014806
916.9251,0.014910
918.7888,0.014654
920.6524,0.014326
922.5161,0.014352
924.3798,0.014659
926.2435,0.015026
928.1071,0.015313
929.9708,0.015801
931.8345,0.016427
933.6981,0.017118
935.5618,0.018160
937.4255,0.019554
939.2891,0.021004
941.1528,0.022243
943.0165,0.022976
944.8801,0.022784
946.7438,0.021253
948.6075,0.019188
950.4711,0.017725
952.3348,0.017043
954.1985,0.016859
956.0622,0.016921
957.9258,0.017136
959.7895,0.017414
961.6532,0.017786
963.5168,0.018337
965.3805,0.018965
967.2442,0.019735
969.1078,0.020489
970.9715,0.021219
972.8352,0.022178
974.6988,0.023480
976.5625,0.025307
978.4262,0.027858
980.2899,0.031237
982.1535,0.034886
984.0172,0.037342
985.8809,0.039526
987.7445,0.042687
989.6082,0.044260
991.4719,0.040889
993.3355,0.033417
995.1992,0.025613
997.0629,0.020137
998.9265,0.016990
1000.7902,0.015243
1002.6539,0.014536
1004.5175,0.014329
1006.3812,0.014255
1008.2449,0.014411
1010.1086,0.014743
1011.9722,0.015151
1013.8359,0.015555
1015.6996,0.016005
1017.5632,0.016641
1019.4269,0.017198
1021.2906,0.017724
1023.1542,0.018321
1025.0179,0.018804
1026.8816,0.019230
1028.7452,0.019718
1030.6089,0.020153
1032.4726,0.020520
1034.3362,0.021057
1036.1999,0.021674
1038.0636,0.022213
1039.9273,0.022750
1041.7909,0.023448
1043.6546,0.024274
1045.5183,0.025279
1047.3819,0.026275
1049.2456,0.027080
1051.1093,0.027777
1052.9729,0.028426
1054.8366,0.029337
1056.7003,0.030695
1058.5639,0.031935
1060.4276,0.031960
1062.2913,0.030318
1064.1550,0.027805
1066.0186,0.025486
1067.8823,0.024078
1069.7460,0.023375
1071.6096,0.023097
1073.4733,0.023183
1075.3370,0.023366
1077.2006,0.023612
1079.0643,0.023939
1080.9280,0.024267
1082.7916,0.024677
1084.6553,0.025099
1086.5190,0.025433
1088.3826,0.025770
1090.2463,0.026267
1092.1100,0.026699
1093.9737,0.027152
1095.8373,0.027742
1097.7010,0.028325
1099.5647,0.028885
1101.4283,0.029508
1103.2920,0.030163
1105.1557,0.030727
1107.0193,0.031173
1108.8830,0.031435
1110.7467,0.031439
1112.6103,0.031178
1114.4740,0.030810
1116.3377,0.030343
1118.2014,0.029912
1120.0650,0.029779
1121.9287,0.029833
1123.7924,0.030005
1125.6560,0.030228
1127.5197,0.030318
1129.3834,0.030401
1131.2470,0.030330
1133.1107,0.029945
1134.9744,0.029539
1136.8380,0.029129
1138.7017,0.028918
1140.5654,0.029096
1142.4290,0.029379
1144.2927,0.029722
1146.1564,0.030456
1148.0201,0.031739
1149.8837,0.033386
1151.7474,0.035085
1153.6111,0.036777
1155.4747,0.038060
1157.3384,0.037712
1159.2021,0.034705
1161.0657,0.030087
1162.9294,0.025908
1164.7931,0.023174
1166.6567,0.021634
1168.5204,0.020994
1170.3841,0.020919
1172.2477,0.021000
1174.1114,0.021234
1175.9751,0.021591
1177.8388,0.021778
1179.7024,0.021849
1181.5661,0.021975
1183.4298,0.022140
1185.2934,0.022394
1187.1571,0.022615
1189.0208,0.022701
1190.8844,0.022764
1192.7481,0.022831
1194.6118,0.022837
1196.4754,0.022952
1198.3391,0.023162
1200.2028,0.023353
1202.0665,0.023523
1203.9301,0.023692
1205.7938,0.023830
1207.6575,0.023831
1209.5211,0.023793
1211.3848,0.023818
1213.2485,0.024031
1215.1121,0.024323
1216.9758,0.024532
1218.8395,0.024688
1220.7031,0.024881
1222.5668,0.024978
1224.4305,0.025095
1226.2941,0.025325
1228.1578,0.025611
1230.0215,0.025859
1231.8852,0.026082
1233.7488,0.026293
1235.6125,0.026536
1237.4762,0.026842
1239.3398,0.027141
1241.2035,0.027478
1243.0672,0.027925
1244.9308,0.028352
1246.7945,0.028757
1248.6582,0.029324
1250.5218,0.030156
1252.3855,0.031095
1254.2492,0.032252
1256.1129,0.033742
1257.9765,0.035375
1259.8402,0.036837
1261.7039,0.037576
1263.5675,0.036869
1265.4312,0.034650
1267.2949,0.031642
1269.1585,0.029117
1271.0222,0.027676
1272.8859,0.027214
1274.7495,0.027458
1276.6132,0.028204
1278.4769,0.029190
1280.3405,0.030359
1282.2042,0.031728
1284.0679,0.033273
1285.9316,0.035090
1287.7952,0.037471
1289.6589,0.040435
1291.5226,0.043355
1293.3862,0.044840
1295.2499,0.043329
1297.1136,0.039241
1298.9772,0.034800
1300.8409,0.031812
1302.7046,0.030784
1304.5682,0.030795
1306.4319,0.030435
1308.2956,0.029269
1310.1592,0.028065
1312.0229,0.027493
1313.8866,0.027589
1315.7503,0.028186
1317.6139,0.029215
1319.4776,0.030726
1321.3413,0.032436
1323.2049,0.034260
1325.0686,0.036426
1326.9323,0.039035
1328.7959,0.042063
1330.6596,0.044943
1332.5233,0.046369
1334.3869,0.045027
1336.2506,0.041804
1338.1143,0.039013
1339.9780,0.037810
1341.8416,0.036879
1343.7053,0.035084
1345.5690,0.032615
1347.4326,0.030500
1349.2963,0.029432
1351.1600,0.029392
1353.0236,0.029857
1354.8873,0.030861
1356.7510,0.032163
1358.6146,0.033255
1360.4783,0.034286
1362.3420,0.036147
1364.2056,0.038510
1366.0693,0.040001
1367.9330,0.041682
1369.7967,0.043994
1371.6603,0.046105
1373.5240,0.048630
1375.3877,0.051790
1377.2513,0.054417
1379.1150,0.057324
1380.9787,0.060461
1382.8423,0.063295
1384.7060,0.065627
1386.5697,0.067079
1388.4333,0.065159
1390.2970,0.060392
1392.1607,0.055788
1394.0244,0.052869
1395.8880,0.052405
1397.7517,0.054118
1399.6154,0.056901
1401.4790,0.056835
1403.3427,0.053703
1405.2064,0.046734
1407.0700,0.038907
1408.9337,0.036173
1410.7974,0.037861
1412.6610,0.039934
1414.5247,0.038871
1416.3884,0.035536
1418.2520,0.031790
1420.1157,0.025821
1421.9794,0.021055
1423.8431,0.018793
1425.7067,0.017308
1427.5704,0.016720
1429.4341,0.016413
1431.2977,0.015415
1433.1614,0.014103
1435.0251,0.013520
1436.8887,0.014714
1438.7524,0.016660
1440.6161,0.018242
1442.4797,0.020521
1444.3434,0.023315
1446.2071,0.026208
1448.0707,0.028286
1449.9344,0.027547
1451.7981,0.025395
1453.6618,0.023468
1455.5254,0.022794
1457.3891,0.025494
1459.2528,0.029284
1461.1164,0.031101
1462.9801,0.033069
1464.8438,0.034838
1466.7074,0.033995
1468.5711,0.031413
1470.4348,0.029243
1472.2984,0.028492
1474.1621,0.028575
1476.0258,0.029019
1477.8895,0.029452
1479.7531,0.029838
1481.6168,0.030669
1483.4805,0.031459
1485.3441,0.032019
1487.2078,0.033024
1489.0715,0.035123
1490.9351,0.037895
1492.7988,0.039352
1494.6625,0.040543
1496.5261,0.042800
1498.3898,0.045196
1500.2535,0.046682
1502.1171,0.047665
1503.9808,0.048775
1505.8445,0.051767
1507.7082,0.051855
1509.5718,0.045283
1511.4355,0.042024
1513.2992,0.038728
1515.1628,0.035698
1517.0265,0.032836
1518.8902,0.029109
1520.7538,0.027716
1522.6175,0.026292
1524.4812,0.024566
1526.3448,0.023863
1528.2085,0.023402
1530.0722,0.022821
1531.9359,0.022747
1533.7995,0.023359
1535.6632,0.023691
1537.5269,0.023531
1539.3905,0.023842
1541.2542,0.026523
1543.1179,0.028670
1544.9815,0.030559
1546.8452,0.032237
1548.7089,0.033592
1550.5725,0.035398
1552.4362,0.036788
1554.2999,0.038013
1556.1635,0.039059
1558.0272,0.041275
1559.8909,0.047337
1561.7546,0.046611
1563.6182,0.046830
1565.4819,0.048307
1567.3456,0.049139
1569.2092,0.050317
1571.0729,0.049883
1572.9366,0.048140
1574.8002,0.048026
1576.6639,0.047724
1578.5276,0.044149
1580.3912,0.041625
1582.2549,0.039627
1584.1186,0.037258
1585.9822,0.034943
1587.8459,0.032778
1589.7096,0.030674
1591.5733,0.028819
1593.4369,0.027430
1595.3006,0.026135
1597.1643,0.024883
1599.0279,0.023983
1600.8916,0.023292
1602.7553,0.022644
1604.6189,0.022199
1606.4826,0.022217
1608.3463,0.022230
1610.2099,0.022291
1612.0736,0.022424
1613.9373,0.022454
1615.8010,0.023338
1617.6646,0.025021
1619.5283,0.025588
1621.3920,0.026792
1623.2556,0.029119
1625.1193,0.031438
1626.9830,0.033239
1628.8466,0.034658
1630.7103,0.034925
1632.5740,0.034460
1634.4376,0.034187
1636.3013,0.031695
1638.1650,0.026949
1640.0286,0.024756
1641.8923,0.023096
1643.7560,0.021528
1645.6197,0.020608
1647.4833,0.020056
1649.3470,0.019652
1651.2107,0.020144
1653.0743,0.021048
1654.9380,0.018231
1656.8017,0.017233
1658.6653,0.017300
1660.5290,0.017229
1662.3927,0.017037
1664.2563,0.016170
1666.1200,0.015432
1667.9837,0.015086
1669.8474,0.014170
1671.7110,0.012437
1673.5747,0.011414
1675.4384,0.010481
1677.3020,0.009146
1679.1657,0.008715
1681.0294,0.008432
1682.8930,0.008333
1684.7567,0.007631
1686.6204,0.007153
1688.4840,0.007649
1690.3477,0.007789
1692.2114,0.007647
1694.0750,0.007708
1695.9387,0.007288
1697.8024,0.006054
1699.6661,0.005968
1701.5297,0.005186
1703.3934,0.005188
1705.2571,0.005330
1707.1207,0.004692
1708.9844,0.004421
1710.8481,0.004318
1712.7117,0.004206
1714.5754,0.003930
1716.4391,0.003263
1718.3027,0.002651
1720.1664,0.002805
1722.0301,0.003366
1723.8937,0.003501
1725.7574,0.003365
1727.6211,0.003339
1729.4848,0.003170
1731.3484,0.002827
1733.2121,0.002637
1735.0758,0.001657
1736.9394,0.001855
1738.8031,0.002661
1740.6668,0.002623
1742.5304,0.002305
1744.3941,0.002084
1746.2578,0.002002
1748.1214,0.002076
1749.9851,0.001808
1751.8488,0.001478
1753.7125,0.001699
1755.5761,0.002258
1757.4398,0.002183
1759.3035,0.002013
1761.1671,0.002229
1763.0308,0.001967
1764.8945,0.001954
1766.7581,0.002291
1768.6218,0.002037
1770.4855,0.002035
1772.3491,0.001855
1774.2128,0.001187
1776.0765,0.001478
1777.9401,0.001960
1779.8038,0.002167
1781.6675,0.001999
1783.5312,0.002052
1785.3948,0.002068
1787.2585,0.001987
1789.1222,0.002222
1790.9858,0.002272
1792.8495,0.001731
1794.7132,0.001630
1796.5768,0.002000
1798.4405,0.002099
1800.3042,0.001962
1802.1678,0.001868
1804.0315,0.001963
1805.8952,0.002181
1807.7589,0.002264
1809.6225,0.002307
1811.4862,0.002156
1813.3499,0.001836
1815.2135,0.001990
1817.0772,0.002219
1818.9409,0.002286
1820.8045,0.002409
1822.6682,0.002470
1824.5319,0.002418
1826.3955,0.002022
1828.2592,0.002095
1830.1229,0.002117
1831.9865,0.001904
1833.8502,0.002249
1835.7139,0.002616
1837.5776,0.002342
1839.4412,0.002001
1841.3049,0.002390
1843.1686,0.002699
1845.0322,0.002129
1846.8959,0.001728
1848.7596,0.002031
1850.6232,0.002338
1852.4869,0.002292
1854.3506,0.001994
1856.2142,0.002108
1858.0779,0.002358
1859.9416,0.002497
1861.8052,0.002563
1863.6689,0.002627
1865.5326,0.002616
1867.3963,0.002342
1869.2599,0.001762
1871.1236,0.001522
1872.9873,0.002070
1874.8509,0.002520
1876.7146,0.002556
1878.5783,0.002640
1880.4419,0.002777
1882.3056,0.002643
1884.1693,0.002310
1886.0329,0.002191
1887.8966,0.002666
1889.7603,0.002619
1891.6240,0.001886
1893.4876,0.002246
1895.3513,0.002843
1897.2150,0.002643
1899.0786,0.002532
1900.9423,0.002947
1902.8060,0.002919
1904.6696,0.002569
1906.5333,0.002263
1908.3970,0.001982
1910.2606,0.002155
1912.1243,0.002395
1913.9880,0.002561
1915.8516,0.003055
1917.7153,0.003110
1919.5790,0.002460
1921.4427,0.001951
1923.3063,0.001967
1925.1700,0.002367
1927.0337,0.002644
1928.8973,0.002222
1930.7610,0.001807
1932.6247,0.001986
1934.4883,0.002788
1936.3520,0.002933
1938.2157,0.002592
1940.0793,0.002693
1941.9430,0.002728
1943.8067,0.002482
1945.6704,0.002541
1947.5340,0.002280
1949.3977,0.002259
1951.2614,0.002698
1953.1250,0.002706
1954.9887,0.002873
1956.8524,0.002951
1958.7160,0.001583
1960.5797,0.000615
1962.4434,0.001542
1964.3070,0.002566
1966.1707,0.003037
1968.0344,0.002559
1969.8980,0.001715
1971.7617,0.002341
1973.6254,0.002270
1975.4891,0.001216
1977.3527,0.001317
1979.2164,0.002042
1981.0801,0.002284
1982.9437,0.002470
1984.8074,0.002620
1986.6711,0.002717
1988.5347,0.001876
1990.3984,0.001703
1992.2621,0.002642
1994.1257,0.002778
1995.9894,0.002616
1997.8531,0.002728
1999.7167,0.003056
2001.5804,0.002897
2003.4441,0.001658
2005.3078,0.001188
2007.1714,0.002420
2009.0351,0.003323
2010.8988,0.002873
2012.7624,0.002575
2014.6261,0.002814
2016.4898,0.002106
2018.3534,0.001575
2020.2171,0.002023
2022.0808,0.002389
2023.9444,0.002915
2025.8081,0.002798
2027.6718,0.001601
2029.5355,0.002417
2031.3991,0.003667
2033.2628,0.002959
2035.1265,0.002797
2036.9901,0.003414
2038.8538,0.003852
2040.7175,0.003157
2042.5811,0.002458
2044.4448,0.002953
2046.3085,0.003280
2048.1721,0.002670
2050.0358,0.003333
2051.8995,0.004441
2053.7631,0.004129
2055.6268,0.003685
2057.4905,0.003615
2059.3542,0.003609
2061.2178,0.003842
2063.0815,0.003149
2064.9452,0.002590
2066.8088,0.003783
2068.6725,0.005325
2070.5362,0.005145
2072.3998,0.004849
2074.2635,0.005080
2076.1272,0.004580
2077.9908,0.004504
2079.8545,0.004890
2081.7182,0.004926
2083.5819,0.004906
2085.4455,0.004683
2087.3092,0.004806
2089.1729,0.004671
2091.0365,0.004260
2092.9002,0.004857
2094.7639,0.004906
2096.6275,0.004282
2098.4912,0.004919
2100.3549,0.005883
2102.2185,0.005772
2104.0822,0.005165
2105.9459,0.005348
2107.8095,0.006100
2109.6732,0.006015
2111.5369,0.005551
2113.4006,0.006011
2115.2642,0.006534
2117.1279,0.006220
2118.9916,0.005739
2120.8552,0.005714
2122.7189,0.006075
2124.5826,0.006730
2126.4462,0.006719
2128.3099,0.005655
2130.1736,0.005273
2132.0372,0.005369
2133.9009,0.004981
2135.7646,0.004905
2137.6282,0.004976
2139.4919,0.005239
2141.3556,0.005703
2143.2193,0.005869
2145.0829,0.005823
2146.9466,0.006727
2148.8103,0.007351
2150.6739,0.006903
2152.5376,0.006862
2154.4013,0.007853
2156.2649,0.008239
2158.1286,0.007079
2159.9923,0.006995
2161.8559,0.008170
2163.7196,0.007583
2165.5833,0.007063
2167.4470,0.007741
2169.3106,0.007459
2171.1743,0.007470
2173.0380,0.009073
2174.9016,0.010091
2176.7653,0.009921
2178.6290,0.009305
2180.4926,0.008635
2182.3563,0.009653
2184.2200,0.010850
2186.0836,0.010191
2187.9473,0.009984
2189.8110,0.009748
2191.6746,0.009452
2193.5383,0.010658
2195.4020,0.011429
2197.2657,0.011433
2199.1293,0.012226
2200.9930,0.012739
2202.8567,0.011513
2204.7203,0.010722
2206.5840,0.011810
2208.4477,0.012275
2210.3113,0.011566
2212.1750,0.010819
2214.0387,0.010872
2215.9023,0.011099
2217.7660,0.010683
2219.6297,0.010195
2221.4934,0.009631
2223.3570,0.009460
2225.2207,0.010159
2227.0844,0.010212
2228.9480,0.009212
2230.8117,0.008856
2232.6754,0.009470
2234.5390,0.009870
2236.4027,0.009792
2238.2664,0.009794
2240.1300,0.009214
2241.9937,0.008614
2243.8574,0.008607
2245.7210,0.008536
2247.5847,0.008879
2249.4484,0.008795
2251.3121,0.007948
2253.1757,0.007780
2255.0394,0.008229
2256.9031,0.008278
2258.7667,0.008264
2260.6304,0.008215
2262.4941,0.007958
2264.3577,0.008205
2266.2214,0.008582
2268.0851,0.008403
2269.9487,0.008380
2271.8124,0.008169
2273.6761,0.007666
2275.5397,0.007602
2277.4034,0.007596
2279.2671,0.007549
2281.1308,0.007639
2282.9944,0.007852
2284.8581,0.008001
2286.7218,0.007850
2288.5854,0.007804
2290.4491,0.007761
2292.3128,0.007359
2294.1764,0.007141
2296.0401,0.007348
2297.9038,0.007532
2299.7674,0.007475
2301.6311,0.007615
2303.4948,0.007683
2305.3585,0.007611
2307.2221,0.007787
2309.0858,0.007926
2310.9495,0.008048
2312.8131,0.008060
2314.6768,0.007959
2316.5405,0.007965
2318.4041,0.008111
2320.2678,0.008242
2322.1315,0.008315
2323.9951,0.008585
2325.8588,0.008453
2327.7225,0.007952
2329.5861,0.007820
2331.4498,0.007771
2333.3135,0.007646
2335.1772,0.007609
2337.0408,0.007712
2338.9045,0.008016
2340.7682,0.008256
2342.6318,0.008282
2344.4955,0.008195
2346.3592,0.007949
2348.2228,0.007774
2350.0865,0.007856
2351.9502,0.008088
2353.8138,0.008342
2355.6775,0.008488
2357.5412,0.008650
2359.4049,0.008816
2361.2685,0.008934
2363.1322,0.008854
2364.9959,0.008421
2366.8595,0.008124
2368.7232,0.008269
2370.5869,0.008537
2372.4505,0.008529
2374.3142,0.008462
2376.1779,0.008573
2378.0415,0.008802
2379.9052,0.009018
2381.7689,0.008967
2383.6325,0.008721
2385.4962,0.008667
2387.3599,0.008929
2389.2236,0.009113
2391.0872,0.009177
2392.9509,0.009345
2394.8146,0.009546
2396.6782,0.009676
2398.5419,0.009695
2400.4056,0.009606
2402.2692,0.009404
2404.1329,0.009411
2405.9966,0.009918
2407.8602,0.010092
2409.7239,0.009758
2411.5876,0.009818
2413.4512,0.010291
2415.3149,0.010623
2417.1786,0.010688
2419.0423,0.010504
2420.9059,0.010298
2422.7696,0.010437
2424.6333,0.010922
2426.4969,0.010980
2428.3606,0.010397
2430.2243,0.010318
2432.0879,0.010809
2433.9516,0.011120
2435.8153,0.011200
2437.6789,0.011261
2439.5426,0.010990
2441.4063,0.010857
2443.2700,0.011346
2445.1336,0.011692
2446.9973,0.011905
2448.8610,0.012161
2450.7246,0.012058
2452.5883,0.011910
2454.4520,0.012008
2456.3156,0.012213
2458.1793,0.012549
2460.0430,0.012512
2461.9066,0.011956
2463.7703,0.011723
2465.6340,0.011910
2467.4976,0.012248
2469.3613,0.012779
2471.2250,0.012955
2473.0887,0.012831
2474.9523,0.012793
2476.8160,0.012769
2478.6797,0.012417
2480.5433,0.012641
2482.4070,0.013286
2484.2707,0.013396
2486.1343,0.013545
2487.9980,0.013695
2489.8617,0.013404
2491.7253,0.013249
2493.5890,0.013537
2495.4527,0.013308
2497.3164,0.013314
2499.1800,0.013946
2501.0437,0.013669
2502.9074,0.013304
2504.7710,0.013618
2506.6347,0.013684
2508.4984,0.013658
2510.3620,0.013765
2512.2257,0.013515
2514.0894,0.013362
2515.9530,0.013674
2517.8167,0.013697
2519.6804,0.013618
2521.5440,0.013907
2523.4077,0.013640
2525.2714,0.013275
2527.1351,0.013697
