Wavenumber,Intensity
650.4205,0.125329
652.2841,0.122204
654.1478,0.117536
656.0115,0.107611
657.8751,0.093032
659.7388,0.078722
661.6025,0.068123
663.4661,0.060071
665.3298,0.055285
667.1935,0.053534
669.0571,0.052008
670.9208,0.050795
672.7845,0.050467
674.6481,0.049715
676.5118,0.050312
678.3755,0.050387
680.2392,0.050082
682.1028,0.049320
683.9665,0.049945
685.8302,0.051074
687.6938,0.052161
689.5575,0.052634
691.4212,0.052009
693.2848,0.051921
695.1485,0.052322
697.0122,0.052596
698.8758,0.053905
700.7395,0.054381
702.6032,0.054254
704.4669,0.053491
706.3305,0.053300
708.1942,0.052816
710.0579,0.051985
711.9215,0.051125
713.7852,0.050446
715.6489,0.049882
717.5125,0.048630
719.3762,0.047253
721.2399,0.046974
723.1035,0.047038
724.9672,0.045856
726.8309,0.045208
728.6945,0.044862
730.5582,0.043889
732.4219,0.043091
734.2856,0.042780
736.1492,0.042510
738.0129,0.042374
739.8766,0.042790
741.7402,0.043488
743.6039,0.044494
745.4676,0.045546
747.3312,0.045788
749.1949,0.045675
751.0586,0.045953
752.9222,0.045978
754.7859,0.045924
756.6496,0.045818
758.5132,0.045674
760.3769,0.045819
762.2406,0.046044
764.1043,0.046632
765.9679,0.047175
767.8316,0.047034
769.6953,0.047601
771.5589,0.048236
773.4226,0.049075
775.2863,0.049753
777.1499,0.050309
779.0136,0.050940
780.8773,0.051429
782.7409,0.051540
784.6046,0.052119
786.4683,0.052957
788.3320,0.053600
790.1956,0.054238
792.0593,0.055188
793.9230,0.056177
795.7866,0.057608
797.6503,0.059015
799.5140,0.060037
801.3776,0.061082
803.2413,0.062219
805.1050,0.063024
806.9686,0.064269
808.8323,0.065738
810.6960,0.066893
812.5596,0.067536
814.4233,0.067908
816.2870,0.068625
818.1507,0.070309
820.0143,0.072598
821.8780,0.075311
823.7417,0.078683
825.6053,0.083088
827.4690,0.088954
829.3327,0.096144
831.1963,0.103263
833.0600,0.110790
834.9237,0.119599
836.7873,0.127878
838.6510,0.131749
840.5147,0.130572
842.3784,0.126398
844.2420,0.120739
846.1057,0.112223
847.9694,0.097974
849.8330,0.076870
851.6967,0.055132
853.5604,0.039837
855.4240,0.031694
857.2877,0.027837
859.1514,0.026167
861.0150,0.025581
862.8787,0.025833
864.7424,0.026502
866.6060,0.027893
868.4697,0.029572
870.3334,0.031381
872.1971,0.033846
874.0607,0.037027
875.9244,0.041089
877.7881,0.046198
879.6517,0.051993
881.5154,0.058363
883.3791,0.063900
885.2427,0.065342
887.1064,0.060808
888.9701,0.052145
890.8337,0.043097
892.6974,0.036247
894.5611,0.032009
896.4247,0.029922
898.2884,0.029449
900.1521,0.029692
902.0158,0.030352
903.8794,0.031263
905.7431,0.032289
907.6068,0.033580
909.4704,0.035088
911.3341,0.036700
913.1978,0.038523
915.0614,0.040154
916.9251,0.040388
918.7888,0.039122
920.6524,0.037904
922.5161,0.037567
924.3798,0.038284
926.2435,0.039697
928.1071,0.041041
929.9708,0.042392
931.8345,0.044317
933.6981,0.046910
935.5618,0.050172
937.4255,0.054040
939.2891,0.058022
941.1528,0.061118
943.0165,0.062380
944.8801,0.060609
946.7438,0.055440
948.6075,0.049494
950.4711,0.045671
952.3348,0.044078
954.1985,0.043757
956.0622,0.044284
957.9258,0.045264
959.7895,0.046345
961.6532,0.047501
963.5168,0.048869
965.3805,0.050498
967.2442,0.052507
969.1078,0.054940
970.9715,0.057766
972.8352,0.061039
974.6988,0.065316
976.5625,0.071143
978.4262,0.079314
980.2899,0.090019
982.1535,0.100303
984.0172,0.106024
985.8809,0.110720
987.7445,0.117309
989.6082,0.117930
991.4719,0.104436
993.3355,0.081515
995.1992,0.061178
997.0629,0.048781
998.9265,0.042572
1000.7902,0.039720
1002.6539,0.038708
1004.5175,0.038536
1006.3812,0.038719
1008.2449,0.039107
1010.1086,0.039371
1011.9722,0.039800
1013.8359,0.040686
1015.6996,0.041903
1017.5632,0.043518
1019.4269,0.045289
1021.2906,0.047058
1023.1542,0.048771
1025.0179,0.050146
1026.8816,0.051386
1028.7452,0.052877
1030.6089,0.054283
1032.4726,0.055769
1034.3362,0.057391
1036.1999,0.059018
1038.0636,0.060769
1039.9273,0.062589
1041.7909,0.064554
1043.6546,0.066648
1045.5183,0.068802
1047.3819,0.070791
1049.2456,0.072172
1051.1093,0.073127
1052.9729,0.074250
1054.8366,0.075775
1056.7003,0.077803
1058.5639,0.079514
1060.4276,0.078479
1062.2913,0.073417
1064.1550,0.066591
1066.0186,0.061104
1067.8823,0.058112
1069.7460,0.057109
1071.6096,0.057202
1073.4733,0.057753
1075.3370,0.058499
1077.2006,0.059322
1079.0643,0.060270
1080.9280,0.061245
1082.7916,0.062341
1084.6553,0.063587
1086.5190,0.064963
1088.3826,0.066213
1090.2463,0.067408
1092.1100,0.068777
1093.9737,0.070286
1095.8373,0.071897
1097.7010,0.073520
1099.5647,0.075402
1101.4283,0.077325
1103.2920,0.078886
1105.1557,0.080183
1107.0193,0.080955
1108.8830,0.080804
1110.7467,0.079997
1112.6103,0.078854
1114.4740,0.077492
1116.3377,0.076263
1118.2014,0.075407
1120.0650,0.075030
1121.9287,0.075018
1123.7924,0.075360
1125.6560,0.075923
1127.5197,0.076453
1129.3834,0.076405
1131.2470,0.075786
1133.1107,0.074910
1134.9744,0.074059
1136.8380,0.073582
1138.7017,0.073796
1140.5654,0.074715
1142.4290,0.076304
1144.2927,0.078494
1146.1564,0.081503
1148.0201,0.085613
1149.8837,0.090413
1151.7474,0.095088
1153.6111,0.098965
1155.4747,0.100290
1157.3384,0.096233
1159.2021,0.085805
1161.0657,0.072656
1162.9294,0.062125
1164.7931,0.056239
1166.6567,0.053826
1168.5204,0.053241
1170.3841,0.053575
1172.2477,0.054240
1174.1114,0.054777
1175.9751,0.055028
1177.8388,0.055046
1179.7024,0.055149
1181.5661,0.055503
1183.4298,0.056016
1185.2934,0.056505
1187.1571,0.057018
1189.0208,0.057424
1190.8844,0.057712
1192.7481,0.057909
1194.6118,0.058217
1196.4754,0.058638
1198.3391,0.059152
1200.2028,0.059814
1202.0665,0.060485
1203.9301,0.060852
1205.7938,0.060937
1207.6575,0.061009
1209.5211,0.061299
1211.3848,0.061756
1213.2485,0.062352
1215.1121,0.063022
1216.9758,0.063726
1218.8395,0.064430
1220.7031,0.065082
1222.5668,0.065617
1224.4305,0.066372
1226.2941,0.067265
1228.1578,0.068088
1230.0215,0.068810
1231.8852,0.069480
1233.7488,0.070175
1235.6125,0.070955
1237.4762,0.071821
1239.3398,0.072877
1241.2035,0.074129
1243.0672,0.075593
1244.9308,0.077249
1246.7945,0.079090
1248.6582,0.081187
1250.5218,0.083754
1252.3855,0.086985
1254.2492,0.090648
1256.1129,0.094495
1257.9765,0.098389
1259.8402,0.101350
1261.7039,0.101164
1263.5675,0.096575
1265.4312,0.088829
1267.2949,0.080667
1269.1585,0.074959
1271.0222,0.072643
1272.8859,0.072969
1274.7495,0.074727
1276.6132,0.077399
1278.4769,0.080797
1280.3405,0.084913
1282.2042,0.089572
1284.0679,0.094644
1285.9316,0.100685
1287.7952,0.108159
1289.6589,0.116163
1291.5226,0.122817
1293.3862,0.124045
1295.2499,0.116346
1297.1136,0.102831
1298.9772,0.090469
1300.8409,0.083584
1302.7046,0.081851
1304.5682,0.081685
1306.4319,0.079935
1308.2956,0.076640
1310.1592,0.073813
1312.0229,0.072963
1313.8866,0.074330
1315.7503,0.076954
1317.6139,0.080949
1319.4776,0.086035
1321.3413,0.091080
1323.2049,0.096231
1325.0686,0.102470
1326.9323,0.109654
1328.7959,0.117186
1330.6596,0.123332
1332.5233,0.124748
1334.3869,0.119037
1336.2506,0.109511
1338.1143,0.102412
1339.9780,0.100103
1341.8416,0.096854
1343.7053,0.090915
1345.5690,0.084585
1347.4326,0.080375
1349.2963,0.079322
1351.1600,0.080622
1353.0236,0.083330
1354.8873,0.087344
1356.7510,0.091261
1358.6146,0.094413
1360.4783,0.098405
1362.3420,0.105391
1364.2056,0.111589
1366.0693,0.114822
1367.9330,0.120349
1369.7967,0.127633
1371.6603,0.133687
1373.5240,0.142342
1375.3877,0.152342
1377.2513,0.158044
1379.1150,0.164339
1380.9787,0.171420
1382.8423,0.176928
1384.7060,0.179625
1386.5697,0.178984
1388.4333,0.170287
1390.2970,0.156026
1392.1607,0.143216
1394.0244,0.136246
1395.8880,0.138059
1397.7517,0.144300
1399.6154,0.150153
1401.4790,0.146317
1403.3427,0.133750
1405.2064,0.113554
1407.0700,0.096558
1408.9337,0.094441
1410.7974,0.101264
1412.6610,0.105304
1414.5247,0.099924
1416.3884,0.088494
1418.2520,0.075263
1420.1157,0.060129
1421.9794,0.051218
1423.8431,0.047217
1425.7067,0.044666
1427.5704,0.044162
1429.4341,0.044281
1431.2977,0.042460
1433.1614,0.039986
1435.0251,0.040425
1436.8887,0.045820
1438.7524,0.050440
1440.6161,0.053767
1442.4797,0.059960
1444.3434,0.067471
1446.2071,0.074301
1448.0707,0.078089
1449.9344,0.074614
1451.7981,0.068665
1453.6618,0.064608
1455.5254,0.065913
1457.3891,0.079112
1459.2528,0.087546
1461.1164,0.087632
1462.9801,0.089935
1464.8438,0.093137
1466.7074,0.089106
1468.5711,0.081319
1470.4348,0.076141
1472.2984,0.076547
1474.1621,0.079320
1476.0258,0.080481
1477.8895,0.081485
1479.7531,0.082677
1481.6168,0.085691
1483.4805,0.088428
1485.3441,0.090636
1487.2078,0.095203
1489.0715,0.103436
1490.9351,0.111394
1492.7988,0.111950
1494.6625,0.113545
1496.5261,0.121192
1498.3898,0.128986
1500.2535,0.130924
1502.1171,0.130285
1503.9808,0.129135
1505.8445,0.131230
1507.7082,0.133690
1509.5718,0.121277
1511.4355,0.110903
1513.2992,0.100926
1515.1628,0.092396
1517.0265,0.084737
1518.8902,0.077085
1520.7538,0.073932
1522.6175,0.070504
1524.4812,0.067775
1526.3448,0.067232
1528.2085,0.066833
1530.0722,0.065971
1531.9359,0.066787
1533.7995,0.070563
1535.6632,0.071149
1537.5269,0.070458
1539.3905,0.076008
1541.2542,0.087846
1543.1179,0.089899
1544.9815,0.092755
1546.8452,0.094904
1548.7089,0.097677
1550.5725,0.103444
1552.4362,0.107148
1554.2999,0.110648
1556.1635,0.114356
1558.0272,0.122895
1559.8909,0.144397
1561.7546,0.135841
1563.6182,0.131980
1565.4819,0.133035
1567.3456,0.133224
1569.2092,0.134488
1571.0729,0.133282
1572.9366,0.127785
1574.8002,0.124460
1576.6639,0.121129
1578.5276,0.113185
1580.3912,0.106269
1582.2549,0.099795
1584.1186,0.093275
1585.9822,0.087189
1587.8459,0.081726
1589.7096,0.077256
1591.5733,0.073249
1593.4369,0.069928
1595.3006,0.067231
1597.1643,0.064806
1599.0279,0.062745
1600.8916,0.061177
1602.7553,0.060038
1604.6189,0.059159
1606.4826,0.059044
1608.3463,0.059758
1610.2099,0.060636
1612.0736,0.061309
1613.9373,0.062366
1615.8010,0.065612
1617.6646,0.071299
1619.5283,0.073203
1621.3920,0.075368
1623.2556,0.081195
1625.1193,0.086485
1626.9830,0.088916
1628.8466,0.090689
1630.7103,0.088911
1632.5740,0.084914
1634.4376,0.080532
1636.3013,0.073310
1638.1650,0.065162
1640.0286,0.060326
1641.8923,0.056641
1643.7560,0.054126
1645.6197,0.053664
1647.4833,0.054099
1649.3470,0.052383
1651.2107,0.051466
1653.0743,0.052882
1654.9380,0.050415
1656.8017,0.047536
1658.6653,0.046152
1660.5290,0.045006
1662.3927,0.043945
1664.2563,0.042178
1666.1200,0.039975
1667.9837,0.037890
1669.8474,0.034699
1671.7110,0.031063
1673.5747,0.029012
1675.4384,0.027443
1677.3020,0.025711
1679.1657,0.024889
1681.0294,0.024478
1682.8930,0.024492
1684.7567,0.024720
1686.6204,0.023968
1688.4840,0.023656
1690.3477,0.023172
1692.2114,0.022243
1694.0750,0.021421
1695.9387,0.020370
1697.8024,0.019030
1699.6661,0.018588
1701.5297,0.017526
1703.3934,0.016486
1705.2571,0.015736
1707.1207,0.014448
1708.9844,0.013408
1710.8481,0.012678
1712.7117,0.011911
1714.5754,0.011141
1716.4391,0.010590
1718.3027,0.010495
1720.1664,0.010466
1722.0301,0.010420
1723.8937,0.010266
1725.7574,0.009965
1727.6211,0.009603
1729.4848,0.009170
1731.3484,0.008572
1733.2121,0.008146
1735.0758,0.007796
1736.9394,0.007733
1738.8031,0.007866
1740.6668,0.007656
1742.5304,0.007346
1744.3941,0.007218
1746.2578,0.007174
1748.1214,0.007140
1749.9851,0.007048
1751.8488,0.006983
1753.7125,0.006862
1755.5761,0.006793
1757.4398,0.006719
1759.3035,0.006715
1761.1671,0.006853
1763.0308,0.006853
1764.8945,0.006765
1766.7581,0.006734
1768.6218,0.006546
1770.4855,0.006397
1772.3491,0.006429
1774.2128,0.006194
1776.0765,0.006188
1777.9401,0.006507
1779.8038,0.006643
1781.6675,0.006546
1783.5312,0.006681
1785.3948,0.006924
1787.2585,0.006858
1789.1222,0.006625
1790.9858,0.006586
1792.8495,0.006801
1794.7132,0.006680
1796.5768,0.006537
1798.4405,0.006701
1800.3042,0.006765
1802.1678,0.006598
1804.0315,0.006621
1805.8952,0.006883
1807.7589,0.006783
1809.6225,0.006514
1811.4862,0.006657
1813.3499,0.006738
1815.2135,0.006559
1817.0772,0.006549
1818.9409,0.006718
1820.8045,0.006844
1822.6682,0.006905
1824.5319,0.006969
1826.3955,0.006970
1828.2592,0.006871
1830.1229,0.006997
1831.9865,0.007154
1833.8502,0.007250
1835.7139,0.007345
1837.5776,0.007190
1839.4412,0.006961
1841.3049,0.006905
1843.1686,0.006864
1845.0322,0.006797
1846.8959,0.006728
1848.7596,0.006641
1850.6232,0.006448
1852.4869,0.006491
1854.3506,0.006765
1856.2142,0.007008
1858.0779,0.006995
1859.9416,0.006769
1861.8052,0.006709
1863.6689,0.006856
1865.5326,0.007039
1867.3963,0.007135
1869.2599,0.007250
1871.1236,0.007166
1872.9873,0.007086
1874.8509,0.007168
1876.7146,0.007068
1878.5783,0.006915
1880.4419,0.006730
1882.3056,0.006802
1884.1693,0.007341
1886.0329,0.007509
1887.8966,0.006855
1889.7603,0.006584
1891.6240,0.006734
1893.4876,0.006555
1895.3513,0.006288
1897.2150,0.006394
1899.0786,0.006897
1900.9423,0.007266
1902.8060,0.007135
1904.6696,0.007128
1906.5333,0.007453
1908.3970,0.007487
1910.2606,0.007196
1912.1243,0.007066
1913.9880,0.006904
1915.8516,0.007236
1917.7153,0.007635
1919.5790,0.007165
1921.4427,0.006514
1923.3063,0.006417
1925.1700,0.006861
1927.0337,0.007153
1928.8973,0.007248
1930.7610,0.006853
1932.6247,0.006341
1934.4883,0.006478
1936.3520,0.006417
1938.2157,0.006250
1940.0793,0.006457
1941.9430,0.006930
1943.8067,0.006441
1945.6704,0.005879
1947.5340,0.005951
1949.3977,0.006106
1951.2614,0.006486
1953.1250,0.006494
1954.9887,0.006113
1956.8524,0.005901
1958.7160,0.005386
1960.5797,0.005353
1962.4434,0.005340
1964.3070,0.005113
1966.1707,0.004921
1968.0344,0.004526
1969.8980,0.004041
1971.7617,0.004579
1973.6254,0.004553
1975.4891,0.003595
1977.3527,0.003787
1979.2164,0.004035
1981.0801,0.003403
1982.9437,0.002862
1984.8074,0.003600
1986.6711,0.004898
1988.5347,0.004829
1990.3984,0.004743
1992.2621,0.005565
1994.1257,0.005750
1995.9894,0.005660
1997.8531,0.005798
1999.7167,0.005595
2001.5804,0.005870
2003.4441,0.006053
2005.3078,0.005518
2007.1714,0.005782
2009.0351,0.006370
2010.8988,0.005385
2012.7624,0.004353
2014.6261,0.004729
2016.4898,0.004782
2018.3534,0.004311
2020.2171,0.004496
2022.0808,0.005239
2023.9444,0.005189
2025.8081,0.003982
2027.6718,0.004287
2029.5355,0.005522
2031.3991,0.005552
2033.2628,0.006375
2035.1265,0.007205
2036.9901,0.006585
2038.8538,0.007114
2040.7175,0.007427
2042.5811,0.007305
2044.4448,0.007196
2046.3085,0.007282
2048.1721,0.008581
2050.0358,0.009889
2051.8995,0.010085
2053.7631,0.009656
2055.6268,0.009412
2057.4905,0.009605
2059.3542,0.009407
2061.2178,0.009739
2063.0815,0.010208
2064.9452,0.010113
2066.8088,0.009735
2068.6725,0.010122
2070.5362,0.011939
2072.3998,0.012637
2074.2635,0.011476
2076.1272,0.011132
2077.9908,0.011515
2079.8545,0.011716
2081.7182,0.011701
2083.5819,0.011667
2085.4455,0.011958
2087.3092,0.011633
2089.1729,0.011019
2091.0365,0.011456
2092.9002,0.012199
2094.7639,0.012350
2096.6275,0.012335
2098.4912,0.012831
2100.3549,0.013211
2102.2185,0.013176
2104.0822,0.013509
2105.9459,0.014016
2107.8095,0.014182
2109.6732,0.013982
2111.5369,0.013716
2113.4006,0.014024
2115.2642,0.014532
2117.1279,0.014712
2118.9916,0.014871
2120.8552,0.014914
2122.7189,0.014845
2124.5826,0.014360
2126.4462,0.013594
2128.3099,0.013750
2130.1736,0.013529
2132.0372,0.013786
2133.9009,0.015558
2135.7646,0.015865
2137.6282,0.014693
2139.4919,0.014633
2141.3556,0.015491
2143.2193,0.015691
2145.0829,0.014319
2146.9466,0.013936
2148.8103,0.014329
2150.6739,0.014108
2152.5376,0.014054
2154.4013,0.012352
2156.2649,0.012099
2158.1286,0.015471
2159.9923,0.017182
2161.8559,0.015976
2163.7196,0.015860
2165.5833,0.017552
2167.4470,0.017594
2169.3106,0.016935
2171.1743,0.016517
2173.0380,0.017323
2174.9016,0.019547
2176.7653,0.019923
2178.6290,0.018520
2180.4926,0.019474
2182.3563,0.022075
2184.2200,0.023119
2186.0836,0.023259
2187.9473,0.023727
2189.8110,0.024291
2191.6746,0.024661
2193.5383,0.023969
2195.4020,0.024376
2197.2657,0.025981
2199.1293,0.026108
2200.9930,0.025994
2202.8567,0.026241
2204.7203,0.025829
2206.5840,0.025376
2208.4477,0.025712
2210.3113,0.025505
2212.1750,0.024451
2214.0387,0.023926
2215.9023,0.023945
2217.7660,0.024284
2219.6297,0.024168
2221.4934,0.023713
2223.3570,0.022728
2225.2207,0.021475
2227.0844,0.021217
2228.9480,0.020614
2230.8117,0.020042
2232.6754,0.020593
2234.5390,0.021089
2236.4027,0.021556
2238.2664,0.021602
2240.1300,0.020590
2241.9937,0.020088
2243.8574,0.020848
2245.7210,0.020610
2247.5847,0.019947
2249.4484,0.020190
2251.3121,0.020582
2253.1757,0.020623
2255.0394,0.020292
2256.9031,0.019120
2258.7667,0.018443
2260.6304,0.018825
2262.4941,0.018498
2264.3577,0.018435
2266.2214,0.018908
2268.0851,0.018851
2269.9487,0.018928
2271.8124,0.019464
2273.6761,0.019889
2275.5397,0.019343
2277.4034,0.018752
2279.2671,0.018609
2281.1308,0.018716
2282.9944,0.018899
2284.8581,0.018928
2286.7218,0.018830
2288.5854,0.018533
2290.4491,0.018413
2292.3128,0.018560
2294.1764,0.018490
2296.0401,0.018590
2297.9038,0.018908
2299.7674,0.018805
2301.6311,0.018753
2303.4948,0.018853
2305.3585,0.018623
2307.2221,0.018661
2309.0858,0.019044
2310.9495,0.019358
2312.8131,0.019385
2314.6768,0.019387
2316.5405,0.019737
2318.4041,0.020016
2320.2678,0.019810
2322.1315,0.020080
2323.9951,0.020599
2325.8588,0.020350
2327.7225,0.020025
2329.5861,0.019786
2331.4498,0.019434
2333.3135,0.019497
2335.1772,0.019581
2337.0408,0.019530
2338.9045,0.019588
2340.7682,0.020008
2342.6318,0.020339
2344.4955,0.020501
2346.3592,0.020596
2348.2228,0.020233
2350.0865,0.019791
2351.9502,0.019693
2353.8138,0.019949
2355.6775,0.020370
2357.5412,0.020611
2359.4049,0.020829
2361.2685,0.021044
2363.1322,0.021314
2364.9959,0.021496
2366.8595,0.021418
2368.7232,0.021581
2370.5869,0.021896
2372.4505,0.022225
2374.3142,0.022626
2376.1779,0.022752
2378.0415,0.022795
2379.9052,0.023048
2381.7689,0.023034
2383.6325,0.023115
2385.4962,0.023423
2387.3599,0.023520
2389.2236,0.023858
2391.0872,0.024295
2392.9509,0.024494
2394.8146,0.024748
2396.6782,0.025070
2398.5419,0.025206
2400.4056,0.025097
2402.2692,0.025131
2404.1329,0.025355
2405.9966,0.025591
2407.8602,0.026159
2409.7239,0.027049
2411.5876,0.027256
2413.4512,0.026952
2415.3149,0.027061
2417.1786,0.027168
2419.0423,0.027325
2420.9059,0.027537
2422.7696,0.027808
2424.6333,0.028099
2426.4969,0.028175
2428.3606,0.028262
2430.2243,0.028592
2432.0879,0.028842
2433.9516,0.028843
2435.8153,0.028808
2437.6789,0.029144
2439.5426,0.029690
2441.4063,0.029887
2443.2700,0.029929
2445.1336,0.030282
2446.9973,0.030876
2448.8610,0.031224
2450.7246,0.031237
2452.5883,0.031388
2454.4520,0.031566
2456.3156,0.031593
2458.1793,0.031578
2460.0430,0.031842
2461.9066,0.032202
2463.7703,0.032391
2465.6340,0.032527
2467.4976,0.032897
2469.3613,0.033552
2471.2250,0.033484
2473.0887,0.033316
2474.9523,0.033944
2476.8160,0.034457
2478.6797,0.034598
2480.5433,0.034636
2482.4070,0.035062
2484.2707,0.035514
2486.1343,0.035364
2487.9980,0.034977
2489.8617,0.034849
2491.7253,0.035289
2493.5890,0.035769
2495.4527,0.035777
2497.3164,0.035644
2499.1800,0.035554
2501.0437,0.035588
2502.9074,0.035902
2504.7710,0.035796
2506.6347,0.035201
2508.4984,0.035241
2510.3620,0.035659
2512.2257,0.035653
2514.0894,0.035587
2515.9530,0.036075
2517.8167,0.036305
2519.6804,0.036162
2521.5440,0.036527
2523.4077,0.036961
2525.2714,0.037377
2527.1351,0.037581
