Wavenumber,Intensity
650.4205,0.068245
652.2841,0.072122
654.1478,0.073355
656.0115,0.070045
657.8751,0.066259
659.7388,0.060904
661.6025,0.059762
663.4661,0.062398
665.3298,0.065106
667.1935,0.068576
669.0571,0.066274
670.9208,0.063913
672.7845,0.064289
674.6481,0.064951
676.5118,0.066579
678.3755,0.068184
680.2392,0.068445
682.1028,0.068878
683.9665,0.070267
685.8302,0.068655
687.6938,0.066554
689.5575,0.065657
691.4212,0.063545
693.2848,0.061428
695.1485,0.062342
697.0122,0.061371
698.8758,0.056466
700.7395,0.052442
702.6032,0.049893
704.4669,0.046451
706.3305,0.044524
708.1942,0.042340
710.0579,0.039896
711.9215,0.038409
713.7852,0.036394
715.6489,0.033104
717.5125,0.029968
719.3762,0.027782
721.2399,0.026097
723.1035,0.024776
724.9672,0.023736
726.8309,0.022357
728.6945,0.021221
730.5582,0.020681
732.4219,0.020449
734.2856,0.020706
736.1492,0.020466
738.0129,0.020351
739.8766,0.020661
741.7402,0.020805
743.6039,0.021215
745.4676,0.021840
747.3312,0.022848
749.1949,0.023127
751.0586,0.023229
752.9222,0.023903
754.7859,0.024868
756.6496,0.025502
758.5132,0.025831
760.3769,0.026416
762.2406,0.027140
764.1043,0.027541
765.9679,0.028262
767.8316,0.029243
769.6953,0.030617
771.5589,0.031472
773.4226,0.032088
775.2863,0.033401
777.1499,0.034512
779.0136,0.035444
780.8773,0.036381
782.7409,0.037658
784.6046,0.038771
786.4683,0.039905
788.3320,0.041322
790.1956,0.042254
792.0593,0.043192
793.9230,0.044502
795.7866,0.045686
797.6503,0.046678
799.5140,0.048046
801.3776,0.049554
803.2413,0.050859
805.1050,0.051924
806.9686,0.053170
808.8323,0.054221
810.6960,0.055407
812.5596,0.055933
814.4233,0.055662
816.2870,0.056266
818.1507,0.057685
820.0143,0.059069
821.8780,0.060211
823.7417,0.061108
825.6053,0.062509
827.4690,0.063604
829.3327,0.063825
831.1963,0.062187
833.0600,0.058423
834.9237,0.053641
836.7873,0.049118
838.6510,0.045526
840.5147,0.042617
842.3784,0.040613
844.2420,0.039555
846.1057,0.038615
847.9694,0.037980
849.8330,0.036689
851.6967,0.034474
853.5604,0.032274
855.4240,0.030773
857.2877,0.030305
859.1514,0.030143
861.0150,0.029879
862.8787,0.029944
864.7424,0.030150
866.6060,0.030310
868.4697,0.030509
870.3334,0.030773
872.1971,0.031225
874.0607,0.031723
875.9244,0.032021
877.7881,0.032232
879.6517,0.032522
881.5154,0.033039
883.3791,0.033454
885.2427,0.033833
887.1064,0.034125
888.9701,0.034442
890.8337,0.034904
892.6974,0.035220
894.5611,0.035593
896.4247,0.036102
898.2884,0.036514
900.1521,0.036971
902.0158,0.037433
903.8794,0.037745
905.7431,0.038308
907.6068,0.038923
909.4704,0.039537
911.3341,0.040372
913.1978,0.041275
915.0614,0.041842
916.9251,0.041673
918.7888,0.040842
920.6524,0.040141
922.5161,0.040046
924.3798,0.040345
926.2435,0.040775
928.1071,0.041289
929.9708,0.041713
931.8345,0.042094
933.6981,0.042436
935.5618,0.042889
937.4255,0.043494
939.2891,0.044081
941.1528,0.044670
943.0165,0.045039
944.8801,0.045522
946.7438,0.046398
948.6075,0.047201
950.4711,0.047887
952.3348,0.048682
954.1985,0.049586
956.0622,0.050480
957.9258,0.051352
959.7895,0.052196
961.6532,0.053122
963.5168,0.054145
965.3805,0.055113
967.2442,0.056167
969.1078,0.057254
970.9715,0.058215
972.8352,0.059074
974.6988,0.059986
976.5625,0.061070
978.4262,0.062556
980.2899,0.064129
982.1535,0.064476
984.0172,0.062403
985.8809,0.059614
987.7445,0.057943
989.6082,0.057150
991.4719,0.056471
993.3355,0.055658
995.1992,0.054685
997.0629,0.053574
998.9265,0.052437
1000.7902,0.051423
1002.6539,0.050419
1004.5175,0.049303
1006.3812,0.048116
1008.2449,0.047026
1010.1086,0.046212
1011.9722,0.045491
1013.8359,0.044773
1015.6996,0.044485
1017.5632,0.044522
1019.4269,0.044782
1021.2906,0.045208
1023.1542,0.045739
1025.0179,0.046619
1026.8816,0.047848
1028.7452,0.049013
1030.6089,0.049358
1032.4726,0.047214
1034.3362,0.042581
1036.1999,0.038766
1038.0636,0.037716
1039.9273,0.038497
1041.7909,0.040169
1043.6546,0.041967
1045.5183,0.042665
1047.3819,0.041118
1049.2456,0.038180
1051.1093,0.036036
1052.9729,0.035421
1054.8366,0.035553
1056.7003,0.035799
1058.5639,0.036107
1060.4276,0.036415
1062.2913,0.036680
1064.1550,0.036952
1066.0186,0.037332
1067.8823,0.037841
1069.7460,0.038359
1071.6096,0.038687
1073.4733,0.038886
1075.3370,0.039181
1077.2006,0.039561
1079.0643,0.039940
1080.9280,0.040289
1082.7916,0.040646
1084.6553,0.040953
1086.5190,0.041315
1088.3826,0.041915
1090.2463,0.042549
1092.1100,0.042868
1093.9737,0.043178
1095.8373,0.043658
1097.7010,0.044318
1099.5647,0.044912
1101.4283,0.045300
1103.2920,0.045571
1105.1557,0.045826
1107.0193,0.046087
1108.8830,0.045908
1110.7467,0.045303
1112.6103,0.044631
1114.4740,0.043963
1116.3377,0.043434
1118.2014,0.042990
1120.0650,0.042640
1121.9287,0.042391
1123.7924,0.042147
1125.6560,0.042001
1127.5197,0.041976
1129.3834,0.042048
1131.2470,0.042089
1133.1107,0.042056
1134.9744,0.041923
1136.8380,0.041799
1138.7017,0.041790
1140.5654,0.041917
1142.4290,0.042085
1144.2927,0.042085
1146.1564,0.042116
1148.0201,0.042141
1149.8837,0.042226
1151.7474,0.042381
1153.6111,0.042489
1155.4747,0.042666
1157.3384,0.042897
1159.2021,0.043099
1161.0657,0.043390
1162.9294,0.043652
1164.7931,0.043928
1166.6567,0.044407
1168.5204,0.044824
1170.3841,0.045091
1172.2477,0.045379
1174.1114,0.045540
1175.9751,0.045420
1177.8388,0.045293
1179.7024,0.045279
1181.5661,0.045277
1183.4298,0.045333
1185.2934,0.045373
1187.1571,0.045393
1189.0208,0.045506
1190.8844,0.045581
1192.7481,0.045528
1194.6118,0.045424
1196.4754,0.045320
1198.3391,0.045392
1200.2028,0.045550
1202.0665,0.045647
1203.9301,0.045709
1205.7938,0.045722
1207.6575,0.045745
1209.5211,0.045711
1211.3848,0.045744
1213.2485,0.045940
1215.1121,0.046058
1216.9758,0.046179
1218.8395,0.046248
1220.7031,0.046297
1222.5668,0.046333
1224.4305,0.046364
1226.2941,0.046442
1228.1578,0.046486
1230.0215,0.046547
1231.8852,0.046599
1233.7488,0.046740
1235.6125,0.046994
1237.4762,0.047095
1239.3398,0.047123
1241.2035,0.047188
1243.0672,0.047247
1244.9308,0.047370
1246.7945,0.047506
1248.6582,0.047623
1250.5218,0.047723
1252.3855,0.047900
1254.2492,0.048111
1256.1129,0.048253
1257.9765,0.048309
1259.8402,0.048354
1261.7039,0.048460
1263.5675,0.048532
1265.4312,0.048471
1267.2949,0.048331
1269.1585,0.048221
1271.0222,0.048080
1272.8859,0.047920
1274.7495,0.047828
1276.6132,0.047703
1278.4769,0.047557
1280.3405,0.047572
1282.2042,0.047514
1284.0679,0.047324
1285.9316,0.047252
1287.7952,0.047279
1289.6589,0.047207
1291.5226,0.047092
1293.3862,0.047004
1295.2499,0.047031
1297.1136,0.047250
1298.9772,0.047436
1300.8409,0.047570
1302.7046,0.047644
1304.5682,0.047550
1306.4319,0.047065
1308.2956,0.046126
1310.1592,0.044752
1312.0229,0.043222
1313.8866,0.042054
1315.7503,0.041702
1317.6139,0.041799
1319.4776,0.041857
1321.3413,0.041972
1323.2049,0.042074
1325.0686,0.042155
1326.9323,0.042189
1328.7959,0.042239
1330.6596,0.042271
1332.5233,0.042154
1334.3869,0.041965
1336.2506,0.041797
1338.1143,0.041488
1339.9780,0.041094
1341.8416,0.040976
1343.7053,0.040958
1345.5690,0.040870
1347.4326,0.040823
1349.2963,0.040940
1351.1600,0.041039
1353.0236,0.041041
1354.8873,0.041002
1356.7510,0.041063
1358.6146,0.041289
1360.4783,0.041403
1362.3420,0.041249
1364.2056,0.041408
1366.0693,0.041838
1367.9330,0.042176
1369.7967,0.042442
1371.6603,0.042665
1373.5240,0.042864
1375.3877,0.043095
1377.2513,0.043251
1379.1150,0.043286
1380.9787,0.043241
1382.8423,0.043173
1384.7060,0.043100
1386.5697,0.042651
1388.4333,0.042237
1390.2970,0.042303
1392.1607,0.042245
1394.0244,0.041598
1395.8880,0.040164
1397.7517,0.038695
1399.6154,0.036653
1401.4790,0.034881
1403.3427,0.033381
1405.2064,0.031273
1407.0700,0.029172
1408.9337,0.027376
1410.7974,0.025468
1412.6610,0.023967
1414.5247,0.023139
1416.3884,0.022695
1418.2520,0.022173
1420.1157,0.021941
1421.9794,0.022001
1423.8431,0.021718
1425.7067,0.021050
1427.5704,0.020500
1429.4341,0.020182
1431.2977,0.020269
1433.1614,0.020508
1435.0251,0.020891
1436.8887,0.021580
1438.7524,0.022899
1440.6161,0.024149
1442.4797,0.025505
1444.3434,0.026792
1446.2071,0.027826
1448.0707,0.028394
1449.9344,0.028321
1451.7981,0.027452
1453.6618,0.026086
1455.5254,0.024297
1457.3891,0.021254
1459.2528,0.019569
1461.1164,0.019541
1462.9801,0.019112
1464.8438,0.018390
1466.7074,0.018080
1468.5711,0.018085
1470.4348,0.017973
1472.2984,0.017721
1474.1621,0.017681
1476.0258,0.017598
1477.8895,0.017264
1479.7531,0.016963
1481.6168,0.016800
1483.4805,0.016822
1485.3441,0.016870
1487.2078,0.016838
1489.0715,0.016621
1490.9351,0.016693
1492.7988,0.016905
1494.6625,0.016843
1496.5261,0.016786
1498.3898,0.016891
1500.2535,0.016997
1502.1171,0.017219
1503.9808,0.017294
1505.8445,0.017333
1507.7082,0.017732
1509.5718,0.017732
1511.4355,0.017725
1513.2992,0.018111
1515.1628,0.018436
1517.0265,0.018679
1518.8902,0.018977
1520.7538,0.019164
1522.6175,0.019667
1524.4812,0.019943
1526.3448,0.020016
1528.2085,0.020435
1530.0722,0.020988
1531.9359,0.021256
1533.7995,0.021457
1535.6632,0.022050
1537.5269,0.022397
1539.3905,0.022441
1541.2542,0.022523
1543.1179,0.023407
1544.9815,0.024052
1546.8452,0.024399
1548.7089,0.024627
1550.5725,0.025197
1552.4362,0.025874
1554.2999,0.026432
1556.1635,0.026876
1558.0272,0.026802
1559.8909,0.026880
1561.7546,0.028056
1563.6182,0.028518
1565.4819,0.029058
1567.3456,0.029586
1569.2092,0.029874
1571.0729,0.030680
1572.9366,0.031359
1574.8002,0.031701
1576.6639,0.032252
1578.5276,0.032932
1580.3912,0.033375
1582.2549,0.034071
1584.1186,0.034995
1585.9822,0.035946
1587.8459,0.037009
1589.7096,0.038058
1591.5733,0.038883
1593.4369,0.039665
1595.3006,0.040731
1597.1643,0.041814
1599.0279,0.042649
1600.8916,0.043477
1602.7553,0.044189
1604.6189,0.044888
1606.4826,0.045634
1608.3463,0.046120
1610.2099,0.046060
1612.0736,0.046092
1613.9373,0.046063
1615.8010,0.045268
1617.6646,0.042877
1619.5283,0.041645
1621.3920,0.040839
1623.2556,0.038919
1625.1193,0.036501
1626.9830,0.035206
1628.8466,0.033836
1630.7103,0.032669
1632.5740,0.031711
1634.4376,0.030173
1636.3013,0.027494
1638.1650,0.026774
1640.0286,0.026880
1641.8923,0.026841
1643.7560,0.026709
1645.6197,0.026353
1647.4833,0.025528
1649.3470,0.025837
1651.2107,0.026051
1653.0743,0.024375
1654.9380,0.023522
1656.8017,0.024714
1658.6653,0.025075
1660.5290,0.025140
1662.3927,0.024482
1664.2563,0.023857
1666.1200,0.023836
1667.9837,0.023556
1669.8474,0.022617
1671.7110,0.022069
1673.5747,0.022045
1675.4384,0.021611
1677.3020,0.021132
1679.1657,0.021079
1681.0294,0.021051
1682.8930,0.020451
1684.7567,0.018534
1686.6204,0.018334
1688.4840,0.019008
1690.3477,0.019655
1692.2114,0.020266
1694.0750,0.020527
1695.9387,0.019941
1697.8024,0.018890
1699.6661,0.017919
1701.5297,0.015942
1703.3934,0.015115
1705.2571,0.014273
1707.1207,0.012779
1708.9844,0.011918
1710.8481,0.011401
1712.7117,0.010858
1714.5754,0.010229
1716.4391,0.009511
1718.3027,0.009039
1720.1664,0.009160
1722.0301,0.009294
1723.8937,0.009307
1725.7574,0.009392
1727.6211,0.009479
1729.4848,0.009454
1731.3484,0.009315
1733.2121,0.008894
1735.0758,0.008422
1736.9394,0.008380
1738.8031,0.008270
1740.6668,0.007964
1742.5304,0.007704
1744.3941,0.007708
1746.2578,0.007628
1748.1214,0.007185
1749.9851,0.006797
1751.8488,0.006889
1753.7125,0.007099
1755.5761,0.006953
1757.4398,0.006753
1759.3035,0.006801
1761.1671,0.006666
1763.0308,0.006644
1764.8945,0.006776
1766.7581,0.006713
1768.6218,0.006828
1770.4855,0.006871
1772.3491,0.006568
1774.2128,0.006570
1776.0765,0.006606
1777.9401,0.006561
1779.8038,0.006712
1781.6675,0.006858
1783.5312,0.006787
1785.3948,0.006860
1787.2585,0.007068
1789.1222,0.007049
1790.9858,0.006833
1792.8495,0.006793
1794.7132,0.007010
1796.5768,0.006953
1798.4405,0.006997
1800.3042,0.007229
1802.1678,0.007193
1804.0315,0.007084
1805.8952,0.007243
1807.7589,0.007364
1809.6225,0.007431
1811.4862,0.007679
1813.3499,0.007919
1815.2135,0.007836
1817.0772,0.007740
1818.9409,0.007976
1820.8045,0.008229
1822.6682,0.008294
1824.5319,0.008222
1826.3955,0.008135
1828.2592,0.008167
1830.1229,0.008176
1831.9865,0.008106
1833.8502,0.008410
1835.7139,0.008867
1837.5776,0.008807
1839.4412,0.008564
1841.3049,0.008409
1843.1686,0.008243
1845.0322,0.008073
1846.8959,0.008087
1848.7596,0.008203
1850.6232,0.008343
1852.4869,0.008158
1854.3506,0.007889
1856.2142,0.008011
1858.0779,0.008157
1859.9416,0.008311
1861.8052,0.008337
1863.6689,0.008082
1865.5326,0.007874
1867.3963,0.007905
1869.2599,0.007942
1871.1236,0.008216
1872.9873,0.008499
1874.8509,0.008702
1876.7146,0.008992
1878.5783,0.009169
1880.4419,0.009387
1882.3056,0.009471
1884.1693,0.009512
1886.0329,0.009960
1887.8966,0.010244
1889.7603,0.010230
1891.6240,0.010213
1893.4876,0.010190
1895.3513,0.010428
1897.2150,0.011007
1899.0786,0.011421
1900.9423,0.011771
1902.8060,0.011981
1904.6696,0.012011
1906.5333,0.012077
1908.3970,0.012167
1910.2606,0.011853
1912.1243,0.011838
1913.9880,0.012315
1915.8516,0.012431
1917.7153,0.012626
1919.5790,0.012685
1921.4427,0.012255
1923.3063,0.011537
1925.1700,0.011078
1927.0337,0.011057
1928.8973,0.010521
1930.7610,0.009950
1932.6247,0.009694
1934.4883,0.009642
1936.3520,0.009602
1938.2157,0.009077
1940.0793,0.008854
1941.9430,0.008805
1943.8067,0.007849
1945.6704,0.007622
1947.5340,0.007987
1949.3977,0.007600
1951.2614,0.007028
1953.1250,0.006467
1954.9887,0.006085
1956.8524,0.005683
1958.7160,0.004910
1960.5797,0.004610
1962.4434,0.004826
1964.3070,0.004978
1966.1707,0.004006
1968.0344,0.003987
1969.8980,0.004958
1971.7617,0.004182
1973.6254,0.004258
1975.4891,0.005256
1977.3527,0.005134
1979.2164,0.005560
1981.0801,0.005715
1982.9437,0.005209
1984.8074,0.005261
1986.6711,0.005456
1988.5347,0.005437
1990.3984,0.005057
1992.2621,0.004842
1994.1257,0.004267
1995.9894,0.004397
1997.8531,0.005412
1999.7167,0.005848
2001.5804,0.005803
2003.4441,0.005256
2005.3078,0.004638
2007.1714,0.004521
2009.0351,0.005833
2010.8988,0.005737
2012.7624,0.003446
2014.6261,0.002960
2016.4898,0.003956
2018.3534,0.003882
2020.2171,0.003410
2022.0808,0.004783
2023.9444,0.006130
2025.8081,0.005125
2027.6718,0.004511
2029.5355,0.005749
2031.3991,0.005716
2033.2628,0.004165
2035.1265,0.005234
2036.9901,0.006243
2038.8538,0.004551
2040.7175,0.003920
2042.5811,0.004859
2044.4448,0.006190
2046.3085,0.007415
2048.1721,0.007483
2050.0358,0.007217
2051.8995,0.006885
2053.7631,0.006096
2055.6268,0.005716
2057.4905,0.006510
2059.3542,0.006881
2061.2178,0.006623
2063.0815,0.006468
2064.9452,0.006010
2066.8088,0.006202
2068.6725,0.007284
2070.5362,0.007849
2072.3998,0.007677
2074.2635,0.007450
2076.1272,0.007309
2077.9908,0.007161
2079.8545,0.007052
2081.7182,0.006564
2083.5819,0.006154
2085.4455,0.006340
2087.3092,0.006931
2089.1729,0.007127
2091.0365,0.006525
2092.9002,0.006283
2094.7639,0.006671
2096.6275,0.006680
2098.4912,0.006597
2100.3549,0.006808
2102.2185,0.006642
2104.0822,0.005972
2105.9459,0.006138
2107.8095,0.007128
2109.6732,0.007533
2111.5369,0.007201
2113.4006,0.007011
2115.2642,0.006427
2117.1279,0.005858
2118.9916,0.006261
2120.8552,0.006649
2122.7189,0.006354
2124.5826,0.005666
2126.4462,0.004911
2128.3099,0.004673
2130.1736,0.005339
2132.0372,0.005586
2133.9009,0.004704
2135.7646,0.004155
2137.6282,0.004915
2139.4919,0.004730
2141.3556,0.004031
2143.2193,0.003989
2145.0829,0.003799
2146.9466,0.003673
2148.8103,0.003572
2150.6739,0.003164
2152.5376,0.002303
2154.4013,0.001725
2156.2649,0.000945
2158.1286,0.000431
2159.9923,0.002252
2161.8559,0.004715
2163.7196,0.005664
2165.5833,0.005279
2167.4470,0.005194
2169.3106,0.005020
2171.1743,0.003824
2173.0380,0.003771
2174.9016,0.004699
2176.7653,0.005333
2178.6290,0.005176
2180.4926,0.004298
2182.3563,0.004746
2184.2200,0.005566
2186.0836,0.005555
2187.9473,0.005721
2189.8110,0.006525
2191.6746,0.007349
2193.5383,0.006580
2195.4020,0.005422
2197.2657,0.005742
2199.1293,0.006938
2200.9930,0.007284
2202.8567,0.007552
2204.7203,0.008021
2206.5840,0.007262
2208.4477,0.005855
2210.3113,0.006198
2212.1750,0.007587
2214.0387,0.007664
2215.9023,0.007002
2217.7660,0.007276
2219.6297,0.007622
2221.4934,0.007659
2223.3570,0.007953
2225.2207,0.007647
2227.0844,0.007084
2228.9480,0.007424
2230.8117,0.008305
2232.6754,0.009108
2234.5390,0.009007
2236.4027,0.008952
2238.2664,0.009071
2240.1300,0.007832
2241.9937,0.006986
2243.8574,0.008387
2245.7210,0.009719
2247.5847,0.009524
2249.4484,0.009288
2251.3121,0.009519
2253.1757,0.009203
2255.0394,0.008508
2256.9031,0.009045
2258.7667,0.009848
2260.6304,0.009803
2262.4941,0.009517
2264.3577,0.009495
2266.2214,0.010004
2268.0851,0.010199
2269.9487,0.009958
2271.8124,0.009762
2273.6761,0.009201
2275.5397,0.009500
2277.4034,0.010341
2279.2671,0.010395
2281.1308,0.010245
2282.9944,0.010528
2284.8581,0.010877
2286.7218,0.011153
2288.5854,0.011234
2290.4491,0.010993
2292.3128,0.010686
2294.1764,0.010749
2296.0401,0.011270
2297.9038,0.011398
2299.7674,0.011273
2301.6311,0.011405
2303.4948,0.011236
2305.3585,0.011141
2307.2221,0.011308
2309.0858,0.011109
2310.9495,0.011220
2312.8131,0.011717
2314.6768,0.011789
2316.5405,0.011656
2318.4041,0.011793
2320.2678,0.012044
2322.1315,0.012333
2323.9951,0.012670
2325.8588,0.012402
2327.7225,0.011652
2329.5861,0.011234
2331.4498,0.011283
2333.3135,0.011454
2335.1772,0.011438
2337.0408,0.011233
2338.9045,0.011347
2340.7682,0.011894
2342.6318,0.012075
2344.4955,0.012036
2346.3592,0.012000
2348.2228,0.011685
2350.0865,0.011736
2351.9502,0.012180
2353.8138,0.012179
2355.6775,0.011841
2357.5412,0.011815
2359.4049,0.011846
2361.2685,0.011624
2363.1322,0.011297
2364.9959,0.011276
2366.8595,0.011738
2368.7232,0.012084
2370.5869,0.012023
2372.4505,0.011815
2374.3142,0.011745
2376.1779,0.012048
2378.0415,0.012434
2379.9052,0.012411
2381.7689,0.012173
2383.6325,0.012277
2385.4962,0.012392
2387.3599,0.012411
2389.2236,0.012750
2391.0872,0.012909
2392.9509,0.012716
2394.8146,0.012711
2396.6782,0.012678
2398.5419,0.012444
2400.4056,0.012508
2402.2692,0.012842
2404.1329,0.013052
2405.9966,0.013030
2407.8602,0.013018
2409.7239,0.013076
2411.5876,0.013081
2413.4512,0.013267
2415.3149,0.013584
2417.1786,0.013497
2419.0423,0.013251
2420.9059,0.013391
2422.7696,0.013537
2424.6333,0.013461
2426.4969,0.013347
2428.3606,0.013445
2430.2243,0.013694
2432.0879,0.013696
2433.9516,0.013732
2435.8153,0.013813
2437.6789,0.013833
2439.5426,0.013758
2441.4063,0.013809
2443.2700,0.014004
2445.1336,0.013676
2446.9973,0.013405
2448.8610,0.013625
2450.7246,0.013641
2452.5883,0.013792
2454.4520,0.014250
2456.3156,0.014328
2458.1793,0.013942
2460.0430,0.013815
2461.9066,0.014068
2463.7703,0.014132
2465.6340,0.014069
2467.4976,0.014033
2469.3613,0.013879
2471.2250,0.013821
2473.0887,0.013939
2474.9523,0.014065
2476.8160,0.014094
2478.6797,0.013910
2480.5433,0.013863
2482.4070,0.013932
2484.2707,0.013719
2486.1343,0.013654
2487.9980,0.013571
2489.8617,0.013630
2491.7253,0.013861
2493.5890,0.013666
2495.4527,0.013684
2497.3164,0.014014
2499.1800,0.014173
2501.0437,0.014111
2502.9074,0.013943
2504.7710,0.013619
2506.6347,0.013408
2508.4984,0.013616
2510.3620,0.013806
2512.2257,0.013746
2514.0894,0.013628
2515.9530,0.013630
2517.8167,0.013626
2519.6804,0.013417
2521.5440,0.013495
2523.4077,0.013900
2525.2714,0.014068
2527.1351,0.014058
