Wavenumber,Intensity
650.4205,0.130867
652.2841,0.131624
654.1478,0.132478
656.0115,0.135380
657.8751,0.139734
659.7388,0.142839
661.6025,0.147201
663.4661,0.149102
665.3298,0.149169
667.1935,0.151533
669.0571,0.153211
670.9208,0.147229
672.7845,0.140583
674.6481,0.135099
676.5118,0.131912
678.3755,0.128590
680.2392,0.125617
682.1028,0.122219
683.9665,0.119925
685.8302,0.116894
687.6938,0.115467
689.5575,0.113896
691.4212,0.111764
693.2848,0.109348
695.1485,0.107083
697.0122,0.105137
698.8758,0.103440
700.7395,0.102704
702.6032,0.101906
704.4669,0.099457
706.3305,0.097547
708.1942,0.096112
710.0579,0.094509
711.9215,0.092353
713.7852,0.090222
715.6489,0.088086
717.5125,0.086009
719.3762,0.084280
721.2399,0.083898
723.1035,0.082957
724.9672,0.080947
726.8309,0.079404
728.6945,0.078752
730.5582,0.077972
732.4219,0.077225
734.2856,0.076086
736.1492,0.075544
738.0129,0.075924
739.8766,0.075904
741.7402,0.075752
743.6039,0.076124
745.4676,0.076020
747.3312,0.075059
749.1949,0.074240
751.0586,0.074339
752.9222,0.073841
754.7859,0.073055
756.6496,0.072617
758.5132,0.072206
760.3769,0.071991
762.2406,0.071629
764.1043,0.071128
765.9679,0.071174
767.8316,0.071390
769.6953,0.071400
771.5589,0.071454
773.4226,0.071940
775.2863,0.072299
777.1499,0.072845
779.0136,0.073078
780.8773,0.072623
782.7409,0.072454
784.6046,0.072675
786.4683,0.072756
788.3320,0.072777
790.1956,0.072942
792.0593,0.073133
793.9230,0.073031
795.7866,0.072821
797.6503,0.072839
799.5140,0.072934
801.3776,0.072862
803.2413,0.072845
805.1050,0.072800
806.9686,0.072812
808.8323,0.072853
810.6960,0.072401
812.5596,0.071197
814.4233,0.069810
816.2870,0.068503
818.1507,0.067236
820.0143,0.066432
821.8780,0.066132
823.7417,0.065951
825.6053,0.065920
827.4690,0.065934
829.3327,0.066229
831.1963,0.065857
833.0600,0.064232
834.9237,0.062516
836.7873,0.061472
838.6510,0.061321
840.5147,0.061491
842.3784,0.061893
844.2420,0.062461
846.1057,0.062787
847.9694,0.063244
849.8330,0.063314
851.6967,0.062725
853.5604,0.062559
855.4240,0.062598
857.2877,0.062521
859.1514,0.062610
861.0150,0.062761
862.8787,0.062811
864.7424,0.062851
866.6060,0.063063
868.4697,0.063436
870.3334,0.063863
872.1971,0.064182
874.0607,0.064644
875.9244,0.065153
877.7881,0.065472
879.6517,0.065541
881.5154,0.065886
883.3791,0.066057
885.2427,0.065962
887.1064,0.066348
888.9701,0.066883
890.8337,0.067407
892.6974,0.067920
894.5611,0.068600
896.4247,0.069535
898.2884,0.070575
900.1521,0.071715
902.0158,0.073000
903.8794,0.074043
905.7431,0.074896
907.6068,0.076262
909.4704,0.078090
911.3341,0.079922
913.1978,0.081769
915.0614,0.083490
916.9251,0.083721
918.7888,0.082288
920.6524,0.080969
922.5161,0.080578
924.3798,0.080963
926.2435,0.081701
928.1071,0.082203
929.9708,0.082487
931.8345,0.082975
933.6981,0.083790
935.5618,0.084533
937.4255,0.085291
939.2891,0.086067
941.1528,0.086803
943.0165,0.087623
944.8801,0.088582
946.7438,0.089672
948.6075,0.090976
950.4711,0.092101
952.3348,0.093364
954.1985,0.094775
956.0622,0.096204
957.9258,0.097638
959.7895,0.098975
961.6532,0.100482
963.5168,0.102194
965.3805,0.103910
967.2442,0.105791
969.1078,0.107651
970.9715,0.109399
972.8352,0.111117
974.6988,0.113008
976.5625,0.115288
978.4262,0.118621
980.2899,0.122747
982.1535,0.124720
984.0172,0.121728
985.8809,0.117684
987.7445,0.116749
989.6082,0.118233
991.4719,0.120455
993.3355,0.122866
995.1992,0.125238
997.0629,0.127709
998.9265,0.130373
1000.7902,0.133070
1002.6539,0.135669
1004.5175,0.138473
1006.3812,0.141422
1008.2449,0.143796
1010.1086,0.145527
1011.9722,0.146517
1013.8359,0.146359
1015.6996,0.145452
1017.5632,0.144138
1019.4269,0.142421
1021.2906,0.140034
1023.1542,0.137457
1025.0179,0.135343
1026.8816,0.133494
1028.7452,0.131626
1030.6089,0.129945
1032.4726,0.128332
1034.3362,0.126938
1036.1999,0.125660
1038.0636,0.124333
1039.9273,0.122975
1041.7909,0.121684
1043.6546,0.120457
1045.5183,0.119138
1047.3819,0.117395
1049.2456,0.115058
1051.1093,0.112303
1052.9729,0.109495
1054.8366,0.107284
1056.7003,0.105968
1058.5639,0.105353
1060.4276,0.105306
1062.2913,0.105585
1064.1550,0.105722
1066.0186,0.105763
1067.8823,0.106126
1069.7460,0.106710
1071.6096,0.107396
1073.4733,0.108165
1075.3370,0.108788
1077.2006,0.109427
1079.0643,0.110085
1080.9280,0.110249
1082.7916,0.109933
1084.6553,0.109499
1086.5190,0.109014
1088.3826,0.108286
1090.2463,0.107685
1092.1100,0.107441
1093.9737,0.107401
1095.8373,0.107540
1097.7010,0.107642
1099.5647,0.107712
1101.4283,0.107816
1103.2920,0.107603
1105.1557,0.106955
1107.0193,0.105797
1108.8830,0.104004
1110.7467,0.101385
1112.6103,0.098214
1114.4740,0.095243
1116.3377,0.092585
1118.2014,0.090138
1120.0650,0.088191
1121.9287,0.086757
1123.7924,0.085465
1125.6560,0.084308
1127.5197,0.083309
1129.3834,0.082364
1131.2470,0.081388
1133.1107,0.080314
1134.9744,0.079275
1136.8380,0.078267
1138.7017,0.077432
1140.5654,0.076885
1142.4290,0.076509
1144.2927,0.076156
1146.1564,0.075865
1148.0201,0.075712
1149.8837,0.075590
1151.7474,0.075526
1153.6111,0.075637
1155.4747,0.075800
1157.3384,0.075975
1159.2021,0.075959
1161.0657,0.075829
1162.9294,0.075749
1164.7931,0.075531
1166.6567,0.075251
1168.5204,0.075032
1170.3841,0.074752
1172.2477,0.074466
1174.1114,0.074150
1175.9751,0.073517
1177.8388,0.072668
1179.7024,0.072133
1181.5661,0.071987
1183.4298,0.072126
1185.2934,0.072446
1187.1571,0.072660
1189.0208,0.072792
1190.8844,0.072961
1192.7481,0.073107
1194.6118,0.073193
1196.4754,0.073337
1198.3391,0.073485
1200.2028,0.073448
1202.0665,0.073173
1203.9301,0.072683
1205.7938,0.072005
1207.6575,0.071281
1209.5211,0.070854
1211.3848,0.070792
1213.2485,0.071038
1215.1121,0.071461
1216.9758,0.071998
1218.8395,0.072695
1220.7031,0.073301
1222.5668,0.073828
1224.4305,0.074406
1226.2941,0.074930
1228.1578,0.075293
1230.0215,0.075430
1231.8852,0.075342
1233.7488,0.075168
1235.6125,0.074917
1237.4762,0.074648
1239.3398,0.074336
1241.2035,0.073837
1243.0672,0.073262
1244.9308,0.072696
1246.7945,0.072044
1248.6582,0.071349
1250.5218,0.070667
1252.3855,0.070049
1254.2492,0.069499
1256.1129,0.068857
1257.9765,0.068120
1259.8402,0.067527
1261.7039,0.066990
1263.5675,0.066532
1265.4312,0.066287
1267.2949,0.066032
1269.1585,0.065741
1271.0222,0.065630
1272.8859,0.065652
1274.7495,0.065674
1276.6132,0.065719
1278.4769,0.065854
1280.3405,0.066023
1282.2042,0.065989
1284.0679,0.065724
1285.9316,0.065460
1287.7952,0.065440
1289.6589,0.065553
1291.5226,0.065802
1293.3862,0.066369
1295.2499,0.067300
1297.1136,0.068580
1298.9772,0.070051
1300.8409,0.071664
1302.7046,0.073440
1304.5682,0.075031
1306.4319,0.075760
1308.2956,0.074862
1310.1592,0.072355
1312.0229,0.069797
1313.8866,0.068310
1315.7503,0.067915
1317.6139,0.068302
1319.4776,0.068853
1321.3413,0.069070
1323.2049,0.069351
1325.0686,0.069862
1326.9323,0.070443
1328.7959,0.071209
1330.6596,0.071743
1332.5233,0.071693
1334.3869,0.071041
1336.2506,0.070169
1338.1143,0.069768
1339.9780,0.069802
1341.8416,0.068586
1343.7053,0.067133
1345.5690,0.066576
1347.4326,0.066540
1349.2963,0.066725
1351.1600,0.067021
1353.0236,0.067436
1354.8873,0.068176
1356.7510,0.068841
1358.6146,0.068977
1360.4783,0.069359
1362.3420,0.071192
1364.2056,0.072480
1366.0693,0.072507
1367.9330,0.073586
1369.7967,0.075211
1371.6603,0.076255
1373.5240,0.078767
1375.3877,0.081868
1377.2513,0.083021
1379.1150,0.084545
1380.9787,0.086327
1382.8423,0.087491
1384.7060,0.088498
1386.5697,0.091259
1388.4333,0.094645
1390.2970,0.095058
1392.1607,0.094832
1394.0244,0.095839
1395.8880,0.096575
1397.7517,0.095510
1399.6154,0.094336
1401.4790,0.091847
1403.3427,0.089783
1405.2064,0.088136
1407.0700,0.084812
1408.9337,0.080852
1410.7974,0.077397
1412.6610,0.074453
1414.5247,0.072075
1416.3884,0.071068
1418.2520,0.072516
1420.1157,0.074791
1421.9794,0.074149
1423.8431,0.073846
1425.7067,0.072736
1427.5704,0.071141
1429.4341,0.071189
1431.2977,0.071958
1433.1614,0.071929
1435.0251,0.072761
1436.8887,0.076367
1438.7524,0.077418
1440.6161,0.076517
1442.4797,0.076670
1444.3434,0.076777
1446.2071,0.076922
1448.0707,0.077868
1449.9344,0.077617
1451.7981,0.075615
1453.6618,0.072971
1455.5254,0.071559
1457.3891,0.074263
1459.2528,0.073500
1461.1164,0.070185
1462.9801,0.068738
1464.8438,0.069333
1466.7074,0.068445
1468.5711,0.066157
1470.4348,0.064632
1472.2984,0.065582
1474.1621,0.067229
1476.0258,0.066777
1477.8895,0.065870
1479.7531,0.065366
1481.6168,0.065983
1483.4805,0.066287
1485.3441,0.066338
1487.2078,0.067821
1489.0715,0.071658
1490.9351,0.075527
1492.7988,0.074661
1494.6625,0.074186
1496.5261,0.077657
1498.3898,0.081870
1500.2535,0.082643
1502.1171,0.081816
1503.9808,0.080830
1505.8445,0.083241
1507.7082,0.094735
1509.5718,0.093892
1511.4355,0.091714
1513.2992,0.091187
1515.1628,0.091283
1517.0265,0.092903
1518.8902,0.092619
1520.7538,0.093247
1522.6175,0.095720
1524.4812,0.094834
1526.3448,0.095005
1528.2085,0.095113
1530.0722,0.093759
1531.9359,0.093252
1533.7995,0.094875
1535.6632,0.093543
1537.5269,0.091282
1539.3905,0.092541
1541.2542,0.097007
1543.1179,0.096332
1544.9815,0.095624
1546.8452,0.093755
1548.7089,0.092517
1550.5725,0.092423
1552.4362,0.091427
1554.2999,0.090357
1556.1635,0.089159
1558.0272,0.090820
1559.8909,0.096876
1561.7546,0.091829
1563.6182,0.089282
1565.4819,0.088700
1567.3456,0.088172
1569.2092,0.089038
1571.0729,0.089391
1572.9366,0.087363
1574.8002,0.087171
1576.6639,0.089931
1578.5276,0.089740
1580.3912,0.088343
1582.2549,0.088204
1584.1186,0.088549
1585.9822,0.088888
1587.8459,0.089243
1589.7096,0.089716
1591.5733,0.090232
1593.4369,0.090732
1595.3006,0.091222
1597.1643,0.091810
1599.0279,0.092366
1600.8916,0.093011
1602.7553,0.093870
1604.6189,0.094768
1606.4826,0.095715
1608.3463,0.096978
1610.2099,0.098143
1612.0736,0.098774
1613.9373,0.098966
1615.8010,0.099998
1617.6646,0.101627
1619.5283,0.100409
1621.3920,0.099056
1623.2556,0.099233
1625.1193,0.098596
1626.9830,0.096796
1628.8466,0.094682
1630.7103,0.092082
1632.5740,0.089418
1634.4376,0.087397
1636.3013,0.086011
1638.1650,0.084139
1640.0286,0.082183
1641.8923,0.080380
1643.7560,0.078550
1645.6197,0.077366
1647.4833,0.076605
1649.3470,0.074731
1651.2107,0.073449
1653.0743,0.074304
1654.9380,0.073850
1656.8017,0.071694
1658.6653,0.069984
1660.5290,0.068481
1662.3927,0.067197
1664.2563,0.065221
1666.1200,0.063059
1667.9837,0.061384
1669.8474,0.059470
1671.7110,0.057289
1673.5747,0.055624
1675.4384,0.054181
1677.3020,0.052442
1679.1657,0.051029
1681.0294,0.049371
1682.8930,0.047795
1684.7567,0.046597
1686.6204,0.044401
1688.4840,0.042500
1690.3477,0.040064
1692.2114,0.037515
1694.0750,0.035463
1695.9387,0.033034
1697.8024,0.029844
1699.6661,0.027637
1701.5297,0.024790
1703.3934,0.022966
1705.2571,0.021347
1707.1207,0.019171
1708.9844,0.017683
1710.8481,0.016418
1712.7117,0.015221
1714.5754,0.014368
1716.4391,0.013565
1718.3027,0.012996
1720.1664,0.012770
1722.0301,0.012525
1723.8937,0.012168
1725.7574,0.011628
1727.6211,0.011129
1729.4848,0.010800
1731.3484,0.010594
1733.2121,0.010140
1735.0758,0.009870
1736.9394,0.009666
1738.8031,0.009505
1740.6668,0.009553
1742.5304,0.009479
1744.3941,0.009226
1746.2578,0.009112
1748.1214,0.009141
1749.9851,0.009121
1751.8488,0.009105
1753.7125,0.008997
1755.5761,0.008965
1757.4398,0.009150
1759.3035,0.009019
1761.1671,0.008938
1763.0308,0.009089
1764.8945,0.009027
1766.7581,0.008835
1768.6218,0.008739
1770.4855,0.008751
1772.3491,0.008983
1774.2128,0.008898
1776.0765,0.008658
1777.9401,0.008608
1779.8038,0.008859
1781.6675,0.009182
1783.5312,0.009112
1785.3948,0.009049
1787.2585,0.009032
1789.1222,0.008880
1790.9858,0.008884
1792.8495,0.009226
1794.7132,0.009245
1796.5768,0.009157
1798.4405,0.009151
1800.3042,0.009057
1802.1678,0.009225
1804.0315,0.009420
1805.8952,0.009322
1807.7589,0.009235
1809.6225,0.009269
1811.4862,0.009398
1813.3499,0.009351
1815.2135,0.009083
1817.0772,0.009010
1818.9409,0.009090
1820.8045,0.009354
1822.6682,0.009488
1824.5319,0.009353
1826.3955,0.009314
1828.2592,0.009279
1830.1229,0.009274
1831.9865,0.009263
1833.8502,0.009279
1835.7139,0.009383
1837.5776,0.009553
1839.4412,0.009621
1841.3049,0.009434
1843.1686,0.009404
1845.0322,0.009566
1846.8959,0.009549
1848.7596,0.009357
1850.6232,0.009330
1852.4869,0.009410
1854.3506,0.009518
1856.2142,0.009562
1858.0779,0.009590
1859.9416,0.009612
1861.8052,0.009524
1863.6689,0.009498
1865.5326,0.009643
1867.3963,0.009663
1869.2599,0.009605
1871.1236,0.009689
1872.9873,0.009811
1874.8509,0.009670
1876.7146,0.009552
1878.5783,0.009774
1880.4419,0.009964
1882.3056,0.009821
1884.1693,0.009765
1886.0329,0.009984
1887.8966,0.009881
1889.7603,0.009415
1891.6240,0.009235
1893.4876,0.009275
1895.3513,0.009261
1897.2150,0.009216
1899.0786,0.009155
1900.9423,0.009218
1902.8060,0.009533
1904.6696,0.009898
1906.5333,0.010046
1908.3970,0.009768
1910.2606,0.009244
1912.1243,0.009090
1913.9880,0.009340
1915.8516,0.009416
1917.7153,0.009045
1919.5790,0.008811
1921.4427,0.008928
1923.3063,0.009015
1925.1700,0.009053
1927.0337,0.009567
1928.8973,0.009605
1930.7610,0.008628
1932.6247,0.008129
1934.4883,0.008297
1936.3520,0.008793
1938.2157,0.009017
1940.0793,0.008706
1941.9430,0.008537
1943.8067,0.008636
1945.6704,0.008197
1947.5340,0.007867
1949.3977,0.008123
1951.2614,0.008748
1953.1250,0.008197
1954.9887,0.006684
1956.8524,0.006245
1958.7160,0.007119
1960.5797,0.007296
1962.4434,0.006744
1964.3070,0.007061
1966.1707,0.006558
1968.0344,0.005278
1969.8980,0.005314
1971.7617,0.005242
1973.6254,0.005134
1975.4891,0.005255
1977.3527,0.004777
1979.2164,0.004951
1981.0801,0.005305
1982.9437,0.005440
1984.8074,0.005957
1986.6711,0.007599
1988.5347,0.008225
1990.3984,0.007268
1992.2621,0.006169
1994.1257,0.006181
1995.9894,0.007983
1997.8531,0.008145
1999.7167,0.006484
2001.5804,0.006215
2003.4441,0.006536
2005.3078,0.005866
2007.1714,0.005196
2009.0351,0.004120
2010.8988,0.003903
2012.7624,0.005798
2014.6261,0.006000
2016.4898,0.004707
2018.3534,0.004513
2020.2171,0.004846
2022.0808,0.004639
2023.9444,0.003727
2025.8081,0.004310
2027.6718,0.005853
2029.5355,0.006222
2031.3991,0.004957
2033.2628,0.004168
2035.1265,0.005387
2036.9901,0.006793
2038.8538,0.006609
2040.7175,0.005749
2042.5811,0.005740
2044.4448,0.006706
2046.3085,0.008060
2048.1721,0.007633
2050.0358,0.007187
2051.8995,0.008424
2053.7631,0.008874
2055.6268,0.009569
2057.4905,0.010477
2059.3542,0.009674
2061.2178,0.009342
2063.0815,0.009347
2064.9452,0.009155
2066.8088,0.009647
2068.6725,0.010357
2070.5362,0.010543
2072.3998,0.010869
2074.2635,0.011604
2076.1272,0.011839
2077.9908,0.011518
2079.8545,0.010841
2081.7182,0.011082
2083.5819,0.011695
2085.4455,0.011475
2087.3092,0.011478
2089.1729,0.011882
2091.0365,0.011291
2092.9002,0.010592
2094.7639,0.010513
2096.6275,0.010870
2098.4912,0.011540
2100.3549,0.011332
2102.2185,0.011512
2104.0822,0.012522
2105.9459,0.012169
2107.8095,0.011539
2109.6732,0.011558
2111.5369,0.011572
2113.4006,0.011726
2115.2642,0.011956
2117.1279,0.011940
2118.9916,0.011546
2120.8552,0.011450
2122.7189,0.011255
2124.5826,0.010621
2126.4462,0.010389
2128.3099,0.010214
2130.1736,0.009854
2132.0372,0.009147
2133.9009,0.009199
2135.7646,0.010084
2137.6282,0.009649
2139.4919,0.008982
2141.3556,0.007885
2143.2193,0.006853
2145.0829,0.006729
2146.9466,0.006287
2148.8103,0.006655
2150.6739,0.006174
2152.5376,0.004139
2154.4013,0.003300
2156.2649,0.003625
2158.1286,0.003553
2159.9923,0.004539
2161.8559,0.006035
2163.7196,0.006322
2165.5833,0.007031
2167.4470,0.007034
2169.3106,0.007330
2171.1743,0.008047
2173.0380,0.006229
2174.9016,0.005627
2176.7653,0.007785
2178.6290,0.007759
2180.4926,0.006536
2182.3563,0.006594
2184.2200,0.007355
2186.0836,0.007639
2187.9473,0.009153
2189.8110,0.010379
2191.6746,0.010195
2193.5383,0.009700
2195.4020,0.009416
2197.2657,0.009056
2199.1293,0.009275
2200.9930,0.008754
2202.8567,0.008080
2204.7203,0.008715
2206.5840,0.010119
2208.4477,0.010537
2210.3113,0.009674
2212.1750,0.009141
2214.0387,0.009911
2215.9023,0.010526
2217.7660,0.010754
2219.6297,0.010262
2221.4934,0.010509
2223.3570,0.011802
2225.2207,0.011727
2227.0844,0.011054
2228.9480,0.011606
2230.8117,0.011964
2232.6754,0.012013
2234.5390,0.011923
2236.4027,0.011610
2238.2664,0.011767
2240.1300,0.012347
2241.9937,0.012738
2243.8574,0.012856
2245.7210,0.012826
2247.5847,0.012744
2249.4484,0.012354
2251.3121,0.011975
2253.1757,0.012536
2255.0394,0.012552
2256.9031,0.012118
2258.7667,0.012784
2260.6304,0.013309
2262.4941,0.013213
2264.3577,0.013151
2266.2214,0.013409
2268.0851,0.013997
2269.9487,0.014610
2271.8124,0.014835
2273.6761,0.015116
2275.5397,0.015453
2277.4034,0.015381
2279.2671,0.015296
2281.1308,0.015295
2282.9944,0.015288
2284.8581,0.015601
2286.7218,0.015484
2288.5854,0.015528
2290.4491,0.016036
2292.3128,0.016041
2294.1764,0.016011
2296.0401,0.016225
2297.9038,0.016311
2299.7674,0.016366
2301.6311,0.016345
2303.4948,0.016176
2305.3585,0.016257
2307.2221,0.016253
2309.0858,0.015835
2310.9495,0.015825
2312.8131,0.016403
2314.6768,0.016750
2316.5405,0.016497
2318.4041,0.016347
2320.2678,0.016585
2322.1315,0.016999
2323.9951,0.017426
2325.8588,0.017084
2327.7225,0.016002
2329.5861,0.015516
2331.4498,0.015764
2333.3135,0.015918
2335.1772,0.015954
2337.0408,0.015840
2338.9045,0.015691
2340.7682,0.015791
2342.6318,0.016081
2344.4955,0.016355
2346.3592,0.016513
2348.2228,0.016472
2350.0865,0.015959
2351.9502,0.015447
2353.8138,0.015502
2355.6775,0.015736
2357.5412,0.015830
2359.4049,0.016018
2361.2685,0.015960
2363.1322,0.015140
2364.9959,0.014745
2366.8595,0.015343
2368.7232,0.015944
2370.5869,0.016573
2372.4505,0.016799
2374.3142,0.016460
2376.1779,0.016571
2378.0415,0.017005
2379.9052,0.017049
2381.7689,0.016948
2383.6325,0.017098
2385.4962,0.017069
2387.3599,0.017009
2389.2236,0.017015
2391.0872,0.016900
2392.9509,0.016938
2394.8146,0.016823
2396.6782,0.016986
2398.5419,0.017432
2400.4056,0.017366
2402.2692,0.017271
2404.1329,0.017394
2405.9966,0.017331
2407.8602,0.017306
2409.7239,0.017312
2411.5876,0.017376
2413.4512,0.017385
2415.3149,0.017383
2417.1786,0.017515
2419.0423,0.017533
2420.9059,0.017567
2422.7696,0.017568
2424.6333,0.017590
2426.4969,0.017732
2428.3606,0.017883
2430.2243,0.018174
2432.0879,0.018098
2433.9516,0.017728
2435.8153,0.017842
2437.6789,0.018161
2439.5426,0.018388
2441.4063,0.018483
2443.2700,0.018102
2445.1336,0.017930
2446.9973,0.018032
2448.8610,0.018172
2450.7246,0.018615
2452.5883,0.018672
2454.4520,0.018324
2456.3156,0.018166
2458.1793,0.018145
2460.0430,0.018361
2461.9066,0.018618
2463.7703,0.018749
2465.6340,0.018714
2467.4976,0.018379
2469.3613,0.018354
2471.2250,0.018515
2473.0887,0.018384
2474.9523,0.018772
2476.8160,0.019302
2478.6797,0.019226
2480.5433,0.019015
2482.4070,0.019313
2484.2707,0.019685
2486.1343,0.019711
2487.9980,0.019504
2489.8617,0.019247
2491.7253,0.019472
2493.5890,0.019593
2495.4527,0.019248
2497.3164,0.019195
2499.1800,0.019246
2501.0437,0.019374
2502.9074,0.019802
2504.7710,0.020027
2506.6347,0.019739
2508.4984,0.019529
2510.3620,0.019476
2512.2257,0.019735
2514.0894,0.020165
2515.9530,0.020339
2517.8167,0.020284
2519.6804,0.020190
2521.5440,0.020535
2523.4077,0.020803
2525.2714,0.020805
2527.1351,0.020992
