Wavenumber,Intensity
650.4205,0.126428
652.2841,0.126427
654.1478,0.126691
656.0115,0.128796
657.8751,0.134625
659.7388,0.136160
661.6025,0.137820
663.4661,0.141987
665.3298,0.145769
667.1935,0.148712
669.0571,0.150085
670.9208,0.142519
672.7845,0.136349
674.6481,0.131909
676.5118,0.127382
678.3755,0.123890
680.2392,0.122958
682.1028,0.121182
683.9665,0.118255
685.8302,0.115197
687.6938,0.113935
689.5575,0.113198
691.4212,0.111398
693.2848,0.108221
695.1485,0.105447
697.0122,0.103269
698.8758,0.103248
700.7395,0.103236
702.6032,0.102176
704.4669,0.100195
706.3305,0.098173
708.1942,0.095808
710.0579,0.093611
711.9215,0.091609
713.7852,0.089037
715.6489,0.086320
717.5125,0.084674
719.3762,0.083763
721.2399,0.082745
723.1035,0.081162
724.9672,0.079402
726.8309,0.077752
728.6945,0.076581
730.5582,0.075419
732.4219,0.074784
734.2856,0.074607
736.1492,0.074040
738.0129,0.073082
739.8766,0.072930
741.7402,0.073677
743.6039,0.074425
745.4676,0.074431
747.3312,0.074143
749.1949,0.073096
751.0586,0.072414
752.9222,0.072354
754.7859,0.071630
756.6496,0.070605
758.5132,0.070393
760.3769,0.070189
762.2406,0.070286
764.1043,0.070211
765.9679,0.069766
767.8316,0.069862
769.6953,0.069881
771.5589,0.069379
773.4226,0.069484
775.2863,0.070012
777.1499,0.070472
779.0136,0.070762
780.8773,0.070869
782.7409,0.070290
784.6046,0.070003
786.4683,0.070238
788.3320,0.070701
790.1956,0.070737
792.0593,0.070318
793.9230,0.070121
795.7866,0.070374
797.6503,0.070230
799.5140,0.070275
801.3776,0.070323
803.2413,0.070093
805.1050,0.070049
806.9686,0.070031
808.8323,0.069624
810.6960,0.068834
812.5596,0.067977
814.4233,0.066898
816.2870,0.065855
818.1507,0.065084
820.0143,0.064274
821.8780,0.063350
823.7417,0.062936
825.6053,0.063145
827.4690,0.063238
829.3327,0.063488
831.1963,0.062686
833.0600,0.060880
834.9237,0.059490
836.7873,0.058652
838.6510,0.058453
840.5147,0.058520
842.3784,0.058460
844.2420,0.058828
846.1057,0.059741
847.9694,0.060474
849.8330,0.060024
851.6967,0.058780
853.5604,0.058084
855.4240,0.058062
857.2877,0.057957
859.1514,0.057759
861.0150,0.057608
862.8787,0.057643
864.7424,0.057919
866.6060,0.057993
868.4697,0.058324
870.3334,0.058848
872.1971,0.059148
874.0607,0.059326
875.9244,0.059462
877.7881,0.059932
879.6517,0.060294
881.5154,0.060579
883.3791,0.060788
885.2427,0.060968
887.1064,0.061252
888.9701,0.061532
890.8337,0.061733
892.6974,0.062106
894.5611,0.062597
896.4247,0.063260
898.2884,0.064100
900.1521,0.065072
902.0158,0.066092
903.8794,0.067389
905.7431,0.068634
907.6068,0.070154
909.4704,0.071877
911.3341,0.073562
913.1978,0.075489
915.0614,0.077114
916.9251,0.076774
918.7888,0.074607
920.6524,0.072773
922.5161,0.072352
924.3798,0.072680
926.2435,0.073046
928.1071,0.073420
929.9708,0.073923
931.8345,0.074633
933.6981,0.075413
935.5618,0.076134
937.4255,0.076965
939.2891,0.077878
941.1528,0.078807
943.0165,0.079858
944.8801,0.080857
946.7438,0.081729
948.6075,0.082550
950.4711,0.083548
952.3348,0.084855
954.1985,0.086318
956.0622,0.087789
957.9258,0.089301
959.7895,0.090844
961.6532,0.092248
963.5168,0.093820
965.3805,0.095785
967.2442,0.097738
969.1078,0.099479
970.9715,0.101149
972.8352,0.102874
974.6988,0.104798
976.5625,0.107250
978.4262,0.110918
980.2899,0.115506
982.1535,0.117689
984.0172,0.114317
985.8809,0.109906
987.7445,0.109212
989.6082,0.111063
991.4719,0.113027
993.3355,0.114776
995.1992,0.116606
997.0629,0.118697
998.9265,0.120883
1000.7902,0.123348
1002.6539,0.126192
1004.5175,0.129310
1006.3812,0.132506
1008.2449,0.135562
1010.1086,0.138016
1011.9722,0.139691
1013.8359,0.140422
1015.6996,0.140362
1017.5632,0.139443
1019.4269,0.137754
1021.2906,0.135488
1023.1542,0.133087
1025.0179,0.130711
1026.8816,0.128596
1028.7452,0.126853
1030.6089,0.125391
1032.4726,0.123952
1034.3362,0.122593
1036.1999,0.121423
1038.0636,0.120443
1039.9273,0.119432
1041.7909,0.118509
1043.6546,0.117679
1045.5183,0.116479
1047.3819,0.114720
1049.2456,0.112416
1051.1093,0.109365
1052.9729,0.106150
1054.8366,0.103571
1056.7003,0.102024
1058.5639,0.101353
1060.4276,0.101191
1062.2913,0.101245
1064.1550,0.101251
1066.0186,0.101378
1067.8823,0.101699
1069.7460,0.102104
1071.6096,0.102727
1073.4733,0.103461
1075.3370,0.104146
1077.2006,0.104924
1079.0643,0.105563
1080.9280,0.105638
1082.7916,0.105452
1084.6553,0.105216
1086.5190,0.104872
1088.3826,0.104396
1090.2463,0.104068
1092.1100,0.103947
1093.9737,0.104262
1095.8373,0.104693
1097.7010,0.105014
1099.5647,0.105477
1101.4283,0.105732
1103.2920,0.105649
1105.1557,0.105200
1107.0193,0.103897
1108.8830,0.101839
1110.7467,0.099201
1112.6103,0.096134
1114.4740,0.093088
1116.3377,0.090362
1118.2014,0.088041
1120.0650,0.086131
1121.9287,0.084632
1123.7924,0.083501
1125.6560,0.082483
1127.5197,0.081709
1129.3834,0.080928
1131.2470,0.079873
1133.1107,0.078829
1134.9744,0.077808
1136.8380,0.076820
1138.7017,0.076000
1140.5654,0.075398
1142.4290,0.074941
1144.2927,0.074507
1146.1564,0.074197
1148.0201,0.074062
1149.8837,0.074028
1151.7474,0.074065
1153.6111,0.074138
1155.4747,0.074353
1157.3384,0.074544
1159.2021,0.074546
1161.0657,0.074538
1162.9294,0.074369
1164.7931,0.074075
1166.6567,0.073857
1168.5204,0.073688
1170.3841,0.073615
1172.2477,0.073689
1174.1114,0.073576
1175.9751,0.073040
1177.8388,0.072316
1179.7024,0.071875
1181.5661,0.071815
1183.4298,0.071970
1185.2934,0.072270
1187.1571,0.072544
1189.0208,0.072645
1190.8844,0.072578
1192.7481,0.072539
1194.6118,0.072573
1196.4754,0.072670
1198.3391,0.072715
1200.2028,0.072602
1202.0665,0.072246
1203.9301,0.071692
1205.7938,0.071020
1207.6575,0.070343
1209.5211,0.069960
1211.3848,0.070098
1213.2485,0.070437
1215.1121,0.070847
1216.9758,0.071422
1218.8395,0.072056
1220.7031,0.072612
1222.5668,0.073061
1224.4305,0.073580
1226.2941,0.074165
1228.1578,0.074483
1230.0215,0.074604
1231.8852,0.074669
1233.7488,0.074565
1235.6125,0.074373
1237.4762,0.074111
1239.3398,0.073762
1241.2035,0.073392
1243.0672,0.072915
1244.9308,0.072363
1246.7945,0.071768
1248.6582,0.071149
1250.5218,0.070647
1252.3855,0.070219
1254.2492,0.069765
1256.1129,0.069350
1257.9765,0.069010
1259.8402,0.068735
1261.7039,0.068392
1263.5675,0.068053
1265.4312,0.067695
1267.2949,0.067205
1269.1585,0.066590
1271.0222,0.066209
1272.8859,0.066204
1274.7495,0.066256
1276.6132,0.066318
1278.4769,0.066427
1280.3405,0.066617
1282.2042,0.066699
1284.0679,0.066570
1285.9316,0.066411
1287.7952,0.066506
1289.6589,0.066997
1291.5226,0.067783
1293.3862,0.068866
1295.2499,0.070153
1297.1136,0.071352
1298.9772,0.072611
1300.8409,0.074257
1302.7046,0.076046
1304.5682,0.077430
1306.4319,0.077476
1308.2956,0.075589
1310.1592,0.072274
1312.0229,0.069218
1313.8866,0.067610
1315.7503,0.067238
1317.6139,0.067777
1319.4776,0.068760
1321.3413,0.069659
1323.2049,0.070451
1325.0686,0.071300
1326.9323,0.072163
1328.7959,0.073070
1330.6596,0.073727
1332.5233,0.073777
1334.3869,0.073019
1336.2506,0.071658
1338.1143,0.070469
1339.9780,0.070026
1341.8416,0.069375
1343.7053,0.068427
1345.5690,0.067797
1347.4326,0.067640
1349.2963,0.067856
1351.1600,0.068255
1353.0236,0.068704
1354.8873,0.069418
1356.7510,0.070202
1358.6146,0.070446
1360.4783,0.070681
1362.3420,0.072373
1364.2056,0.074058
1366.0693,0.074606
1367.9330,0.076036
1369.7967,0.077910
1371.6603,0.079251
1373.5240,0.081939
1375.3877,0.085183
1377.2513,0.086717
1379.1150,0.088136
1380.9787,0.089798
1382.8423,0.091199
1384.7060,0.092542
1386.5697,0.095238
1388.4333,0.098492
1390.2970,0.098918
1392.1607,0.098284
1394.0244,0.098572
1395.8880,0.098570
1397.7517,0.097299
1399.6154,0.096158
1401.4790,0.093934
1403.3427,0.091888
1405.2064,0.089967
1407.0700,0.086292
1408.9337,0.081988
1410.7974,0.078395
1412.6610,0.075676
1414.5247,0.073660
1416.3884,0.072646
1418.2520,0.073992
1420.1157,0.076274
1421.9794,0.075958
1423.8431,0.075386
1425.7067,0.073895
1427.5704,0.072219
1429.4341,0.072091
1431.2977,0.072631
1433.1614,0.072505
1435.0251,0.073101
1436.8887,0.076213
1438.7524,0.077609
1440.6161,0.077065
1442.4797,0.077164
1444.3434,0.077293
1446.2071,0.077575
1448.0707,0.078299
1449.9344,0.077750
1451.7981,0.075654
1453.6618,0.072818
1455.5254,0.071257
1457.3891,0.073348
1459.2528,0.073454
1461.1164,0.071134
1462.9801,0.070085
1464.8438,0.070518
1466.7074,0.069586
1468.5711,0.067186
1470.4348,0.065612
1472.2984,0.066289
1474.1621,0.067504
1476.0258,0.067256
1477.8895,0.066485
1479.7531,0.066215
1481.6168,0.066963
1483.4805,0.067535
1485.3441,0.067956
1487.2078,0.069614
1489.0715,0.073451
1490.9351,0.077303
1492.7988,0.077150
1494.6625,0.077294
1496.5261,0.080824
1498.3898,0.084961
1500.2535,0.086121
1502.1171,0.085562
1503.9808,0.084648
1505.8445,0.086843
1507.7082,0.096525
1509.5718,0.096950
1511.4355,0.095349
1513.2992,0.094619
1515.1628,0.094178
1517.0265,0.094885
1518.8902,0.094606
1520.7538,0.095135
1522.6175,0.096959
1524.4812,0.096500
1526.3448,0.096875
1528.2085,0.097232
1530.0722,0.096063
1531.9359,0.095698
1533.7995,0.097202
1535.6632,0.095972
1537.5269,0.093476
1539.3905,0.093595
1541.2542,0.097547
1543.1179,0.098255
1544.9815,0.098343
1546.8452,0.097313
1548.7089,0.096399
1550.5725,0.096270
1552.4362,0.095347
1554.2999,0.093903
1556.1635,0.092059
1558.0272,0.092381
1559.8909,0.098378
1561.7546,0.096431
1563.6182,0.094004
1565.4819,0.092707
1567.3456,0.091721
1569.2092,0.092069
1571.0729,0.092289
1572.9366,0.090712
1574.8002,0.090198
1576.6639,0.092107
1578.5276,0.092513
1580.3912,0.091524
1582.2549,0.091347
1584.1186,0.091620
1585.9822,0.091771
1587.8459,0.091932
1589.7096,0.092187
1591.5733,0.092625
1593.4369,0.093370
1595.3006,0.094160
1597.1643,0.094722
1599.0279,0.095254
1600.8916,0.096153
1602.7553,0.097201
1604.6189,0.097987
1606.4826,0.098874
1608.3463,0.100224
1610.2099,0.101524
1612.0736,0.102277
1613.9373,0.102241
1615.8010,0.102743
1617.6646,0.103935
1619.5283,0.103000
1621.3920,0.101906
1623.2556,0.101939
1625.1193,0.101236
1626.9830,0.099621
1628.8466,0.097504
1630.7103,0.094602
1632.5740,0.091324
1634.4376,0.088309
1636.3013,0.085520
1638.1650,0.083775
1640.0286,0.082494
1641.8923,0.080844
1643.7560,0.078842
1645.6197,0.077144
1647.4833,0.076337
1649.3470,0.075257
1651.2107,0.073530
1653.0743,0.072349
1654.9380,0.072507
1656.8017,0.071900
1658.6653,0.070577
1660.5290,0.068860
1662.3927,0.067153
1664.2563,0.065269
1666.1200,0.063351
1667.9837,0.061481
1669.8474,0.059267
1671.7110,0.057333
1673.5747,0.055932
1675.4384,0.054412
1677.3020,0.052700
1679.1657,0.051404
1681.0294,0.049559
1682.8930,0.047421
1684.7567,0.044925
1686.6204,0.043594
1688.4840,0.042469
1690.3477,0.040180
1692.2114,0.037557
1694.0750,0.035164
1695.9387,0.031785
1697.8024,0.028343
1699.6661,0.026436
1701.5297,0.023399
1703.3934,0.021896
1705.2571,0.020299
1707.1207,0.017805
1708.9844,0.016459
1710.8481,0.015516
1712.7117,0.014588
1714.5754,0.013554
1716.4391,0.012332
1718.3027,0.011621
1720.1664,0.011545
1722.0301,0.011603
1723.8937,0.011405
1725.7574,0.011005
1727.6211,0.010688
1729.4848,0.010230
1731.3484,0.009668
1733.2121,0.009216
1735.0758,0.008623
1736.9394,0.008573
1738.8031,0.008747
1740.6668,0.008660
1742.5304,0.008608
1744.3941,0.008507
1746.2578,0.008328
1748.1214,0.008297
1749.9851,0.008221
1751.8488,0.008001
1753.7125,0.008136
1755.5761,0.008476
1757.4398,0.008503
1759.3035,0.008314
1761.1671,0.008464
1763.0308,0.008509
1764.8945,0.008335
1766.7581,0.008342
1768.6218,0.008368
1770.4855,0.008264
1772.3491,0.008178
1774.2128,0.008198
1776.0765,0.008328
1777.9401,0.008421
1779.8038,0.008471
1781.6675,0.008364
1783.5312,0.008434
1785.3948,0.008709
1787.2585,0.008797
1789.1222,0.008719
1790.9858,0.008736
1792.8495,0.008797
1794.7132,0.008792
1796.5768,0.008659
1798.4405,0.008476
1800.3042,0.008528
1802.1678,0.008721
1804.0315,0.008856
1805.8952,0.008928
1807.7589,0.008946
1809.6225,0.008970
1811.4862,0.008956
1813.3499,0.008915
1815.2135,0.008876
1817.0772,0.008869
1818.9409,0.008969
1820.8045,0.009068
1822.6682,0.009133
1824.5319,0.009202
1826.3955,0.009197
1828.2592,0.009177
1830.1229,0.009053
1831.9865,0.009012
1833.8502,0.009066
1835.7139,0.008994
1837.5776,0.009057
1839.4412,0.009147
1841.3049,0.008894
1843.1686,0.008728
1845.0322,0.008869
1846.8959,0.009073
1848.7596,0.009235
1850.6232,0.009319
1852.4869,0.009488
1854.3506,0.009541
1856.2142,0.009453
1858.0779,0.009617
1859.9416,0.009693
1861.8052,0.009537
1863.6689,0.009573
1865.5326,0.009493
1867.3963,0.009263
1869.2599,0.009273
1871.1236,0.009190
1872.9873,0.009309
1874.8509,0.009541
1876.7146,0.009517
1878.5783,0.009432
1880.4419,0.009569
1882.3056,0.009896
1884.1693,0.009781
1886.0329,0.009552
1887.8966,0.009831
1889.7603,0.009694
1891.6240,0.008961
1893.4876,0.008886
1895.3513,0.009367
1897.2150,0.009354
1899.0786,0.009154
1900.9423,0.009396
1902.8060,0.009531
1904.6696,0.009181
1906.5333,0.009141
1908.3970,0.009460
1910.2606,0.009431
1912.1243,0.009115
1913.9880,0.009129
1915.8516,0.009345
1917.7153,0.009206
1919.5790,0.009360
1921.4427,0.009563
1923.3063,0.009237
1925.1700,0.008875
1927.0337,0.008785
1928.8973,0.008932
1930.7610,0.009275
1932.6247,0.009302
1934.4883,0.009166
1936.3520,0.009157
1938.2157,0.008647
1940.0793,0.007839
1941.9430,0.007967
1943.8067,0.008664
1945.6704,0.008919
1947.5340,0.009220
1949.3977,0.008749
1951.2614,0.007270
1953.1250,0.006904
1954.9887,0.007482
1956.8524,0.006870
1958.7160,0.006733
1960.5797,0.007641
1962.4434,0.007975
1964.3070,0.007741
1966.1707,0.006361
1968.0344,0.005261
1969.8980,0.005507
1971.7617,0.005341
1973.6254,0.005223
1975.4891,0.005954
1977.3527,0.006207
1979.2164,0.006422
1981.0801,0.006450
1982.9437,0.006618
1984.8074,0.007363
1986.6711,0.006837
1988.5347,0.006487
1990.3984,0.006574
1992.2621,0.005466
1994.1257,0.005107
1995.9894,0.005888
1997.8531,0.006492
1999.7167,0.007181
2001.5804,0.007185
2003.4441,0.005409
2005.3078,0.004345
2007.1714,0.005639
2009.0351,0.006199
2010.8988,0.005129
2012.7624,0.004764
2014.6261,0.004293
2016.4898,0.003179
2018.3534,0.004678
2020.2171,0.006869
2022.0808,0.006577
2023.9444,0.005976
2025.8081,0.005474
2027.6718,0.004828
2029.5355,0.005393
2031.3991,0.006086
2033.2628,0.005873
2035.1265,0.006307
2036.9901,0.006591
2038.8538,0.006004
2040.7175,0.005754
2042.5811,0.006810
2044.4448,0.007815
2046.3085,0.006796
2048.1721,0.006988
2050.0358,0.009021
2051.8995,0.009578
2053.7631,0.009730
2055.6268,0.009948
2057.4905,0.009098
2059.3542,0.009130
2061.2178,0.009930
2063.0815,0.009763
2064.9452,0.009803
2066.8088,0.009426
2068.6725,0.009207
2070.5362,0.009966
2072.3998,0.010074
2074.2635,0.010101
2076.1272,0.010735
2077.9908,0.011318
2079.8545,0.011572
2081.7182,0.011466
2083.5819,0.011248
2085.4455,0.011365
2087.3092,0.011176
2089.1729,0.010468
2091.0365,0.010621
2092.9002,0.010646
2094.7639,0.010495
2096.6275,0.011284
2098.4912,0.011936
2100.3549,0.011868
2102.2185,0.011537
2104.0822,0.011378
2105.9459,0.011946
2107.8095,0.012656
2109.6732,0.012416
2111.5369,0.011978
2113.4006,0.011929
2115.2642,0.011564
2117.1279,0.011048
2118.9916,0.011025
2120.8552,0.011157
2122.7189,0.011242
2124.5826,0.011053
2126.4462,0.010456
2128.3099,0.010064
2130.1736,0.009736
2132.0372,0.009079
2133.9009,0.009216
2135.7646,0.009977
2137.6282,0.009346
2139.4919,0.007800
2141.3556,0.007209
2143.2193,0.008072
2145.0829,0.008435
2146.9466,0.007047
2148.8103,0.005752
2150.6739,0.005440
2152.5376,0.005629
2154.4013,0.005604
2156.2649,0.003856
2158.1286,0.002216
2159.9923,0.004022
2161.8559,0.005428
2163.7196,0.005851
2165.5833,0.006990
2167.4470,0.006640
2169.3106,0.006535
2171.1743,0.006622
2173.0380,0.006709
2174.9016,0.007083
2176.7653,0.007119
2178.6290,0.007152
2180.4926,0.007756
2182.3563,0.008362
2184.2200,0.008305
2186.0836,0.008965
2187.9473,0.009518
2189.8110,0.008571
2191.6746,0.008240
2193.5383,0.009106
2195.4020,0.009103
2197.2657,0.008738
2199.1293,0.009044
2200.9930,0.008696
2202.8567,0.009053
2204.7203,0.010551
2206.5840,0.010536
2208.4477,0.009427
2210.3113,0.009535
2212.1750,0.010967
2214.0387,0.011753
2215.9023,0.010872
2217.7660,0.010586
2219.6297,0.011164
2221.4934,0.010769
2223.3570,0.010684
2225.2207,0.011327
2227.0844,0.011319
2228.9480,0.011898
2230.8117,0.012220
2232.6754,0.011729
2234.5390,0.011654
2236.4027,0.011170
2238.2664,0.011164
2240.1300,0.012198
2241.9937,0.012649
2243.8574,0.012223
2245.7210,0.012257
2247.5847,0.012779
2249.4484,0.012648
2251.3121,0.012433
2253.1757,0.012324
2255.0394,0.012630
2256.9031,0.012962
2258.7667,0.012685
2260.6304,0.013311
2262.4941,0.013778
2264.3577,0.012950
2266.2214,0.012624
2268.0851,0.013269
2269.9487,0.014376
2271.8124,0.015063
2273.6761,0.014995
2275.5397,0.015174
2277.4034,0.015218
2279.2671,0.014868
2281.1308,0.015048
2282.9944,0.015417
2284.8581,0.015714
2286.7218,0.015799
2288.5854,0.015854
2290.4491,0.016080
2292.3128,0.016008
2294.1764,0.015695
2296.0401,0.015997
2297.9038,0.016224
2299.7674,0.015636
2301.6311,0.015741
2303.4948,0.015992
2305.3585,0.015655
2307.2221,0.015988
2309.0858,0.016276
2310.9495,0.015915
2312.8131,0.016072
2314.6768,0.016612
2316.5405,0.016817
2318.4041,0.016771
2320.2678,0.016668
2322.1315,0.016941
2323.9951,0.017439
2325.8588,0.017241
2327.7225,0.016617
2329.5861,0.016410
2331.4498,0.016255
2333.3135,0.016067
2335.1772,0.016007
2337.0408,0.016173
2338.9045,0.016428
2340.7682,0.016528
2342.6318,0.016603
2344.4955,0.016562
2346.3592,0.016313
2348.2228,0.015988
2350.0865,0.015959
2351.9502,0.016163
2353.8138,0.016176
2355.6775,0.016147
2357.5412,0.016203
2359.4049,0.016415
2361.2685,0.016378
2363.1322,0.016075
2364.9959,0.016339
2366.8595,0.016519
2368.7232,0.016445
2370.5869,0.016413
2372.4505,0.016313
2374.3142,0.016382
2376.1779,0.016654
2378.0415,0.016648
2379.9052,0.016402
2381.7689,0.016470
2383.6325,0.016685
2385.4962,0.016594
2387.3599,0.016456
2389.2236,0.016488
2391.0872,0.016519
2392.9509,0.016661
2394.8146,0.016931
2396.6782,0.017035
2398.5419,0.016946
2400.4056,0.016877
2402.2692,0.016892
2404.1329,0.016796
2405.9966,0.016892
2407.8602,0.017005
2409.7239,0.017083
2411.5876,0.017010
2413.4512,0.016940
2415.3149,0.016984
2417.1786,0.016952
2419.0423,0.017125
2420.9059,0.017222
2422.7696,0.017129
2424.6333,0.017296
2426.4969,0.017446
2428.3606,0.017176
2430.2243,0.017208
2432.0879,0.017362
2433.9516,0.017324
2435.8153,0.017606
2437.6789,0.017890
2439.5426,0.017476
2441.4063,0.017203
2443.2700,0.017668
2445.1336,0.017893
2446.9973,0.017805
2448.8610,0.018077
2450.7246,0.018352
2452.5883,0.018214
2454.4520,0.018190
2456.3156,0.018404
2458.1793,0.018308
2460.0430,0.018049
2461.9066,0.017808
2463.7703,0.017800
2465.6340,0.017916
2467.4976,0.017914
2469.3613,0.017886
2471.2250,0.017741
2473.0887,0.017940
2474.9523,0.018151
2476.8160,0.018044
2478.6797,0.018058
2480.5433,0.018334
2482.4070,0.018544
2484.2707,0.018358
2486.1343,0.018321
2487.9980,0.018456
2489.8617,0.018378
2491.7253,0.018292
2493.5890,0.018701
2495.4527,0.019051
2497.3164,0.018629
2499.1800,0.018310
2501.0437,0.018710
2502.9074,0.019116
2504.7710,0.019558
2506.6347,0.019469
2508.4984,0.019111
2510.3620,0.019285
2512.2257,0.019666
2514.0894,0.019508
2515.9530,0.018958
2517.8167,0.019124
2519.6804,0.019538
2521.5440,0.019644
2523.4077,0.019406
2525.2714,0.019307
2527.1351,0.019779
