Wavenumber,Intensity
650.4205,0.127132
652.2841,0.128212
654.1478,0.129975
656.0115,0.129545
657.8751,0.130744
659.7388,0.133264
661.6025,0.138514
663.4661,0.143321
665.3298,0.146976
667.1935,0.151374
669.0571,0.149615
670.9208,0.139344
672.7845,0.132520
674.6481,0.128880
676.5118,0.127477
678.3755,0.124185
680.2392,0.120251
682.1028,0.117203
683.9665,0.115157
685.8302,0.113559
687.6938,0.113024
689.5575,0.111394
691.4212,0.109335
693.2848,0.107072
695.1485,0.105392
697.0122,0.104267
698.8758,0.102664
700.7395,0.100995
702.6032,0.100148
704.4669,0.098652
706.3305,0.096158
708.1942,0.094170
710.0579,0.092695
711.9215,0.090881
713.7852,0.088780
715.6489,0.086443
717.5125,0.085402
719.3762,0.084483
721.2399,0.081868
723.1035,0.079712
724.9672,0.079635
726.8309,0.078703
728.6945,0.077360
730.5582,0.076332
732.4219,0.075454
734.2856,0.074703
736.1492,0.074339
738.0129,0.074794
739.8766,0.075767
741.7402,0.075290
743.6039,0.074638
745.4676,0.075365
747.3312,0.074790
749.1949,0.073483
751.0586,0.072802
752.9222,0.072609
754.7859,0.072623
756.6496,0.072028
758.5132,0.071139
760.3769,0.070291
762.2406,0.069884
764.1043,0.070194
765.9679,0.070342
767.8316,0.069965
769.6953,0.069704
771.5589,0.069603
773.4226,0.069562
775.2863,0.069992
777.1499,0.070385
779.0136,0.070412
780.8773,0.070595
782.7409,0.070717
784.6046,0.070427
786.4683,0.070231
788.3320,0.070514
790.1956,0.070679
792.0593,0.070358
793.9230,0.070116
795.7866,0.070282
797.6503,0.070295
799.5140,0.069981
801.3776,0.069809
803.2413,0.069816
805.1050,0.069749
806.9686,0.069682
808.8323,0.069169
810.6960,0.068206
812.5596,0.067265
814.4233,0.066769
816.2870,0.065948
818.1507,0.065073
820.0143,0.064312
821.8780,0.063401
823.7417,0.062852
825.6053,0.062761
827.4690,0.062896
829.3327,0.063177
831.1963,0.062624
833.0600,0.061317
834.9237,0.060016
836.7873,0.059511
838.6510,0.059496
840.5147,0.059323
842.3784,0.059305
844.2420,0.059534
846.1057,0.059947
847.9694,0.060378
849.8330,0.060022
851.6967,0.059182
853.5604,0.058388
855.4240,0.058034
857.2877,0.058085
859.1514,0.057995
861.0150,0.057834
862.8787,0.057809
864.7424,0.058029
866.6060,0.058477
868.4697,0.058741
870.3334,0.058618
872.1971,0.059016
874.0607,0.059814
875.9244,0.060063
877.7881,0.060148
879.6517,0.060250
881.5154,0.060551
883.3791,0.061001
885.2427,0.061269
887.1064,0.061258
888.9701,0.061236
890.8337,0.061470
892.6974,0.061907
894.5611,0.062536
896.4247,0.063304
898.2884,0.064235
900.1521,0.065217
902.0158,0.066191
903.8794,0.067359
905.7431,0.068447
907.6068,0.069593
909.4704,0.071301
911.3341,0.073206
913.1978,0.074971
915.0614,0.076498
916.9251,0.076721
918.7888,0.075476
920.6524,0.074221
922.5161,0.073739
924.3798,0.074009
926.2435,0.074578
928.1071,0.075028
929.9708,0.075392
931.8345,0.075949
933.6981,0.076671
935.5618,0.077498
937.4255,0.078415
939.2891,0.079184
941.1528,0.080133
943.0165,0.081184
944.8801,0.082182
946.7438,0.083077
948.6075,0.084017
950.4711,0.085058
952.3348,0.086260
954.1985,0.087593
956.0622,0.089210
957.9258,0.090864
959.7895,0.092466
961.6532,0.094160
963.5168,0.095999
965.3805,0.097829
967.2442,0.099671
969.1078,0.101622
970.9715,0.103631
972.8352,0.105513
974.6988,0.107549
976.5625,0.109956
978.4262,0.113192
980.2899,0.117075
982.1535,0.119162
984.0172,0.116777
985.8809,0.113336
987.7445,0.112929
989.6082,0.114839
991.4719,0.116998
993.3355,0.118811
995.1992,0.120536
997.0629,0.122546
998.9265,0.124757
1000.7902,0.127354
1002.6539,0.130184
1004.5175,0.133098
1006.3812,0.135972
1008.2449,0.138253
1010.1086,0.139471
1011.9722,0.139648
1013.8359,0.138999
1015.6996,0.137787
1017.5632,0.136294
1019.4269,0.134643
1021.2906,0.132829
1023.1542,0.131135
1025.0179,0.129256
1026.8816,0.127519
1028.7452,0.126141
1030.6089,0.124865
1032.4726,0.123648
1034.3362,0.122602
1036.1999,0.121603
1038.0636,0.120475
1039.9273,0.118971
1041.7909,0.117492
1043.6546,0.116008
1045.5183,0.114108
1047.3819,0.111567
1049.2456,0.108424
1051.1093,0.104857
1052.9729,0.101615
1054.8366,0.099261
1056.7003,0.097973
1058.5639,0.097475
1060.4276,0.097418
1062.2913,0.097576
1064.1550,0.097798
1066.0186,0.097901
1067.8823,0.098158
1069.7460,0.098726
1071.6096,0.099510
1073.4733,0.100269
1075.3370,0.101023
1077.2006,0.101692
1079.0643,0.102184
1080.9280,0.102391
1082.7916,0.102208
1084.6553,0.101887
1086.5190,0.101497
1088.3826,0.100982
1090.2463,0.100569
1092.1100,0.100511
1093.9737,0.100712
1095.8373,0.100987
1097.7010,0.101275
1099.5647,0.101436
1101.4283,0.101508
1103.2920,0.101441
1105.1557,0.100897
1107.0193,0.099672
1108.8830,0.097876
1110.7467,0.095588
1112.6103,0.092919
1114.4740,0.090225
1116.3377,0.087824
1118.2014,0.085762
1120.0650,0.083917
1121.9287,0.082342
1123.7924,0.081189
1125.6560,0.080263
1127.5197,0.079361
1129.3834,0.078476
1131.2470,0.077583
1133.1107,0.076578
1134.9744,0.075685
1136.8380,0.074954
1138.7017,0.074263
1140.5654,0.073591
1142.4290,0.073061
1144.2927,0.072668
1146.1564,0.072362
1148.0201,0.072155
1149.8837,0.072022
1151.7474,0.072051
1153.6111,0.072133
1155.4747,0.072201
1157.3384,0.072311
1159.2021,0.072237
1161.0657,0.071959
1162.9294,0.071708
1164.7931,0.071479
1166.6567,0.071231
1168.5204,0.071095
1170.3841,0.070967
1172.2477,0.070935
1174.1114,0.070792
1175.9751,0.070343
1177.8388,0.069802
1179.7024,0.069489
1181.5661,0.069505
1183.4298,0.069738
1185.2934,0.070042
1187.1571,0.070212
1189.0208,0.070167
1190.8844,0.070109
1192.7481,0.070058
1194.6118,0.069995
1196.4754,0.069984
1198.3391,0.070015
1200.2028,0.070011
1202.0665,0.069845
1203.9301,0.069380
1205.7938,0.068740
1207.6575,0.068130
1209.5211,0.067715
1211.3848,0.067668
1213.2485,0.067961
1215.1121,0.068436
1216.9758,0.069016
1218.8395,0.069616
1220.7031,0.070242
1222.5668,0.070878
1224.4305,0.071459
1226.2941,0.071943
1228.1578,0.072317
1230.0215,0.072456
1231.8852,0.072365
1233.7488,0.072170
1235.6125,0.071882
1237.4762,0.071575
1239.3398,0.071310
1241.2035,0.070928
1243.0672,0.070393
1244.9308,0.069884
1246.7945,0.069401
1248.6582,0.068795
1250.5218,0.068193
1252.3855,0.067596
1254.2492,0.067028
1256.1129,0.066556
1257.9765,0.066071
1259.8402,0.065583
1261.7039,0.065230
1263.5675,0.064889
1265.4312,0.064443
1267.2949,0.063892
1269.1585,0.063388
1271.0222,0.063118
1272.8859,0.063031
1274.7495,0.063103
1276.6132,0.063226
1278.4769,0.063367
1280.3405,0.063503
1282.2042,0.063526
1284.0679,0.063373
1285.9316,0.063190
1287.7952,0.063303
1289.6589,0.063633
1291.5226,0.064163
1293.3862,0.064956
1295.2499,0.066111
1297.1136,0.067310
1298.9772,0.068337
1300.8409,0.069532
1302.7046,0.071101
1304.5682,0.072728
1306.4319,0.073506
1308.2956,0.072500
1310.1592,0.069952
1312.0229,0.067468
1313.8866,0.066193
1315.7503,0.066011
1317.6139,0.066644
1319.4776,0.067536
1321.3413,0.068028
1323.2049,0.068385
1325.0686,0.068985
1326.9323,0.069719
1328.7959,0.070393
1330.6596,0.070863
1332.5233,0.070972
1334.3869,0.070445
1336.2506,0.069400
1338.1143,0.068569
1339.9780,0.068285
1341.8416,0.067316
1343.7053,0.066056
1345.5690,0.065263
1347.4326,0.064903
1349.2963,0.064977
1351.1600,0.065241
1353.0236,0.065519
1354.8873,0.066089
1356.7510,0.066714
1358.6146,0.067054
1360.4783,0.067550
1362.3420,0.069098
1364.2056,0.070315
1366.0693,0.070659
1367.9330,0.071989
1369.7967,0.073726
1371.6603,0.074947
1373.5240,0.077606
1375.3877,0.080803
1377.2513,0.082205
1379.1150,0.083608
1380.9787,0.085058
1382.8423,0.086052
1384.7060,0.087036
1386.5697,0.089469
1388.4333,0.092484
1390.2970,0.092989
1392.1607,0.092883
1394.0244,0.093826
1395.8880,0.094387
1397.7517,0.093460
1399.6154,0.092263
1401.4790,0.089973
1403.3427,0.088174
1405.2064,0.086757
1407.0700,0.083657
1408.9337,0.079779
1410.7974,0.076384
1412.6610,0.073687
1414.5247,0.071647
1416.3884,0.070433
1418.2520,0.071524
1420.1157,0.073521
1421.9794,0.072719
1423.8431,0.071954
1425.7067,0.070624
1427.5704,0.069222
1429.4341,0.069378
1431.2977,0.070009
1433.1614,0.069857
1435.0251,0.070787
1436.8887,0.074158
1438.7524,0.075171
1440.6161,0.074574
1442.4797,0.074712
1444.3434,0.074642
1446.2071,0.074853
1448.0707,0.075821
1449.9344,0.075409
1451.7981,0.073498
1453.6618,0.070984
1455.5254,0.069746
1457.3891,0.072076
1459.2528,0.071646
1461.1164,0.068748
1462.9801,0.067381
1464.8438,0.067723
1466.7074,0.066824
1468.5711,0.064550
1470.4348,0.063066
1472.2984,0.063785
1474.1621,0.064783
1476.0258,0.064536
1477.8895,0.063732
1479.7531,0.063319
1481.6168,0.064146
1483.4805,0.064661
1485.3441,0.064873
1487.2078,0.066487
1489.0715,0.070461
1490.9351,0.074329
1492.7988,0.073791
1494.6625,0.073694
1496.5261,0.077166
1498.3898,0.081158
1500.2535,0.082122
1502.1171,0.081559
1503.9808,0.081015
1505.8445,0.083857
1507.7082,0.092526
1509.5718,0.091827
1511.4355,0.090489
1513.2992,0.089978
1515.1628,0.089689
1517.0265,0.090698
1518.8902,0.090697
1520.7538,0.091424
1522.6175,0.093216
1524.4812,0.092755
1526.3448,0.092978
1528.2085,0.092974
1530.0722,0.091798
1531.9359,0.091626
1533.7995,0.093097
1535.6632,0.091894
1537.5269,0.090332
1539.3905,0.092072
1541.2542,0.095749
1543.1179,0.095333
1544.9815,0.095023
1546.8452,0.093521
1548.7089,0.092597
1550.5725,0.092613
1552.4362,0.091799
1554.2999,0.090643
1556.1635,0.088965
1558.0272,0.090148
1559.8909,0.095943
1561.7546,0.091881
1563.6182,0.089453
1565.4819,0.088401
1567.3456,0.087399
1569.2092,0.087825
1571.0729,0.087689
1572.9366,0.085617
1574.8002,0.085010
1576.6639,0.086883
1578.5276,0.086659
1580.3912,0.085447
1582.2549,0.085242
1584.1186,0.085353
1585.9822,0.085550
1587.8459,0.085774
1589.7096,0.086024
1591.5733,0.086407
1593.4369,0.087027
1595.3006,0.087764
1597.1643,0.088382
1599.0279,0.088876
1600.8916,0.089494
1602.7553,0.090400
1604.6189,0.091347
1606.4826,0.092347
1608.3463,0.093776
1610.2099,0.095131
1612.0736,0.095844
1613.9373,0.096088
1615.8010,0.097573
1617.6646,0.099358
1619.5283,0.097797
1621.3920,0.096476
1623.2556,0.096642
1625.1193,0.095867
1626.9830,0.094251
1628.8466,0.092548
1630.7103,0.089807
1632.5740,0.086692
1634.4376,0.084358
1636.3013,0.082546
1638.1650,0.080630
1640.0286,0.078894
1641.8923,0.077064
1643.7560,0.075314
1645.6197,0.074421
1647.4833,0.073680
1649.3470,0.071794
1651.2107,0.070349
1653.0743,0.070360
1654.9380,0.069833
1656.8017,0.068313
1658.6653,0.066850
1660.5290,0.065273
1662.3927,0.063897
1664.2563,0.061828
1666.1200,0.059414
1667.9837,0.057453
1669.8474,0.055560
1671.7110,0.053670
1673.5747,0.052255
1675.4384,0.051064
1677.3020,0.049315
1679.1657,0.047824
1681.0294,0.046179
1682.8930,0.044681
1684.7567,0.042719
1686.6204,0.040593
1688.4840,0.039387
1690.3477,0.037455
1692.2114,0.034890
1694.0750,0.032631
1695.9387,0.029475
1697.8024,0.026274
1699.6661,0.025053
1701.5297,0.022301
1703.3934,0.020364
1705.2571,0.018873
1707.1207,0.016724
1708.9844,0.015564
1710.8481,0.014701
1712.7117,0.013736
1714.5754,0.012990
1716.4391,0.012337
1718.3027,0.011513
1720.1664,0.011158
1722.0301,0.011195
1723.8937,0.010850
1725.7574,0.010290
1727.6211,0.009975
1729.4848,0.009631
1731.3484,0.009297
1733.2121,0.009005
1735.0758,0.008299
1736.9394,0.008121
1738.8031,0.008361
1740.6668,0.008275
1742.5304,0.008017
1744.3941,0.007897
1746.2578,0.007952
1748.1214,0.008000
1749.9851,0.007743
1751.8488,0.007439
1753.7125,0.007429
1755.5761,0.007579
1757.4398,0.007692
1759.3035,0.007724
1761.1671,0.007799
1763.0308,0.007708
1764.8945,0.007696
1766.7581,0.007741
1768.6218,0.007572
1770.4855,0.007515
1772.3491,0.007658
1774.2128,0.007639
1776.0765,0.007531
1777.9401,0.007622
1779.8038,0.007879
1781.6675,0.007872
1783.5312,0.007700
1785.3948,0.007570
1787.2585,0.007425
1789.1222,0.007341
1790.9858,0.007506
1792.8495,0.007706
1794.7132,0.007674
1796.5768,0.007631
1798.4405,0.007739
1800.3042,0.007991
1802.1678,0.008046
1804.0315,0.007947
1805.8952,0.007895
1807.7589,0.007787
1809.6225,0.007774
1811.4862,0.007810
1813.3499,0.007829
1815.2135,0.007827
1817.0772,0.007793
1818.9409,0.007997
1820.8045,0.008186
1822.6682,0.008019
1824.5319,0.007944
1826.3955,0.007839
1828.2592,0.007784
1830.1229,0.007755
1831.9865,0.007700
1833.8502,0.007978
1835.7139,0.008238
1837.5776,0.008043
1839.4412,0.007703
1841.3049,0.007703
1843.1686,0.007949
1845.0322,0.008074
1846.8959,0.007956
1848.7596,0.007802
1850.6232,0.007745
1852.4869,0.008002
1854.3506,0.008404
1856.2142,0.008426
1858.0779,0.008292
1859.9416,0.008237
1861.8052,0.008241
1863.6689,0.008326
1865.5326,0.008197
1867.3963,0.007978
1869.2599,0.007832
1871.1236,0.007803
1872.9873,0.007995
1874.8509,0.008005
1876.7146,0.007988
1878.5783,0.007959
1880.4419,0.007789
1882.3056,0.007859
1884.1693,0.007907
1886.0329,0.008002
1887.8966,0.008267
1889.7603,0.008553
1891.6240,0.008650
1893.4876,0.008371
1895.3513,0.008132
1897.2150,0.008007
1899.0786,0.007893
1900.9423,0.007860
1902.8060,0.007923
1904.6696,0.008112
1906.5333,0.008209
1908.3970,0.008263
1910.2606,0.008162
1912.1243,0.007558
1913.9880,0.007288
1915.8516,0.007550
1917.7153,0.007734
1919.5790,0.007608
1921.4427,0.007455
1923.3063,0.007291
1925.1700,0.007402
1927.0337,0.007575
1928.8973,0.007594
1930.7610,0.007582
1932.6247,0.007363
1934.4883,0.007695
1936.3520,0.008044
1938.2157,0.007786
1940.0793,0.008042
1941.9430,0.007950
1943.8067,0.006817
1945.6704,0.006865
1947.5340,0.007173
1949.3977,0.006505
1951.2614,0.006168
1953.1250,0.006816
1954.9887,0.007068
1956.8524,0.006713
1958.7160,0.006388
1960.5797,0.005330
1962.4434,0.004601
1964.3070,0.005306
1966.1707,0.005968
1968.0344,0.005157
1969.8980,0.004638
1971.7617,0.004795
1973.6254,0.004493
1975.4891,0.004196
1977.3527,0.003447
1979.2164,0.003772
1981.0801,0.005017
1982.9437,0.005108
1984.8074,0.005133
1986.6711,0.005590
1988.5347,0.005716
1990.3984,0.005978
1992.2621,0.006298
1994.1257,0.006146
1995.9894,0.004959
1997.8531,0.004063
1999.7167,0.004965
2001.5804,0.005847
2003.4441,0.005712
2005.3078,0.005015
2007.1714,0.005546
2009.0351,0.006262
2010.8988,0.005535
2012.7624,0.004721
2014.6261,0.003794
2016.4898,0.003284
2018.3534,0.003687
2020.2171,0.004333
2022.0808,0.005068
2023.9444,0.005221
2025.8081,0.003577
2027.6718,0.003255
2029.5355,0.004187
2031.3991,0.004343
2033.2628,0.005234
2035.1265,0.005237
2036.9901,0.005155
2038.8538,0.006635
2040.7175,0.006563
2042.5811,0.005799
2044.4448,0.006267
2046.3085,0.006900
2048.1721,0.007012
2050.0358,0.007147
2051.8995,0.007812
2053.7631,0.007919
2055.6268,0.008146
2057.4905,0.008285
2059.3542,0.007943
2061.2178,0.007802
2063.0815,0.008172
2064.9452,0.008021
2066.8088,0.007444
2068.6725,0.008343
2070.5362,0.009323
2072.3998,0.009284
2074.2635,0.009233
2076.1272,0.009239
2077.9908,0.009320
2079.8545,0.009540
2081.7182,0.009400
2083.5819,0.009247
2085.4455,0.009593
2087.3092,0.009933
2089.1729,0.009864
2091.0365,0.009886
2092.9002,0.009906
2094.7639,0.009694
2096.6275,0.009954
2098.4912,0.010029
2100.3549,0.009581
2102.2185,0.009515
2104.0822,0.009514
2105.9459,0.010082
2107.8095,0.010921
2109.6732,0.010769
2111.5369,0.010154
2113.4006,0.009628
2115.2642,0.009747
2117.1279,0.010123
2118.9916,0.010106
2120.8552,0.009953
2122.7189,0.009749
2124.5826,0.009593
2126.4462,0.009326
2128.3099,0.008817
2130.1736,0.007982
2132.0372,0.007914
2133.9009,0.008488
2135.7646,0.008045
2137.6282,0.007857
2139.4919,0.008191
2141.3556,0.007583
2143.2193,0.007048
2145.0829,0.006788
2146.9466,0.005591
2148.8103,0.004979
2150.6739,0.005421
2152.5376,0.005277
2154.4013,0.004843
2156.2649,0.004610
2158.1286,0.003934
2159.9923,0.003498
2161.8559,0.004507
2163.7196,0.005353
2165.5833,0.006384
2167.4470,0.007240
2169.3106,0.006759
2171.1743,0.006049
2173.0380,0.006431
2174.9016,0.006175
2176.7653,0.004669
2178.6290,0.005207
2180.4926,0.007446
2182.3563,0.007866
2184.2200,0.006709
2186.0836,0.006623
2187.9473,0.007679
2189.8110,0.008162
2191.6746,0.007951
2193.5383,0.008145
2195.4020,0.007957
2197.2657,0.007796
2199.1293,0.008698
2200.9930,0.008938
2202.8567,0.009240
2204.7203,0.008939
2206.5840,0.008247
2208.4477,0.009206
2210.3113,0.010412
2212.1750,0.010545
2214.0387,0.010225
2215.9023,0.009916
2217.7660,0.010019
2219.6297,0.009867
2221.4934,0.009295
2223.3570,0.009188
2225.2207,0.009470
2227.0844,0.010433
2228.9480,0.011027
2230.8117,0.010436
2232.6754,0.009973
2234.5390,0.010067
2236.4027,0.010606
2238.2664,0.011580
2240.1300,0.011857
2241.9937,0.011562
2243.8574,0.011754
2245.7210,0.011949
2247.5847,0.011846
2249.4484,0.011558
2251.3121,0.011544
2253.1757,0.011991
2255.0394,0.012161
2256.9031,0.011850
2258.7667,0.011913
2260.6304,0.012484
2262.4941,0.012685
2264.3577,0.012317
2266.2214,0.012356
2268.0851,0.012506
2269.9487,0.012548
2271.8124,0.012947
2273.6761,0.013339
2275.5397,0.013428
2277.4034,0.013322
2279.2671,0.013915
2281.1308,0.014678
2282.9944,0.014612
2284.8581,0.014568
2286.7218,0.014222
2288.5854,0.013889
2290.4491,0.014404
2292.3128,0.014795
2294.1764,0.014577
2296.0401,0.014209
2297.9038,0.014283
2299.7674,0.014559
2301.6311,0.014442
2303.4948,0.014316
2305.3585,0.014340
2307.2221,0.014522
2309.0858,0.014888
2310.9495,0.015005
2312.8131,0.014805
2314.6768,0.014978
2316.5405,0.015062
2318.4041,0.015036
2320.2678,0.015435
2322.1315,0.015742
2323.9951,0.016002
2325.8588,0.015869
2327.7225,0.015248
2329.5861,0.014895
2331.4498,0.014461
2333.3135,0.014196
2335.1772,0.014392
2337.0408,0.014500
2338.9045,0.014656
2340.7682,0.014785
2342.6318,0.015138
2344.4955,0.015441
2346.3592,0.015188
2348.2228,0.014677
2350.0865,0.014412
2351.9502,0.014537
2353.8138,0.014584
2355.6775,0.014648
2357.5412,0.014730
2359.4049,0.014307
2361.2685,0.014175
2363.1322,0.014466
2364.9959,0.014624
2366.8595,0.014546
2368.7232,0.014620
2370.5869,0.015030
2372.4505,0.014926
2374.3142,0.014650
2376.1779,0.014854
2378.0415,0.015349
2379.9052,0.015517
2381.7689,0.015312
2383.6325,0.015035
2385.4962,0.014989
2387.3599,0.014993
2389.2236,0.014840
2391.0872,0.014754
2392.9509,0.014903
2394.8146,0.014733
2396.6782,0.014660
2398.5419,0.015175
2400.4056,0.015402
2402.2692,0.015060
2404.1329,0.014883
2405.9966,0.015077
2407.8602,0.015401
2409.7239,0.015388
2411.5876,0.015234
2413.4512,0.015523
2415.3149,0.015787
2417.1786,0.015721
2419.0423,0.015743
2420.9059,0.015771
2422.7696,0.015571
2424.6333,0.015521
2426.4969,0.015412
2428.3606,0.015511
2430.2243,0.015789
2432.0879,0.015913
2433.9516,0.016191
2435.8153,0.016202
2437.6789,0.016162
2439.5426,0.016191
2441.4063,0.016023
2443.2700,0.016100
2445.1336,0.016279
2446.9973,0.016263
2448.8610,0.016403
2450.7246,0.016815
2452.5883,0.016954
2454.4520,0.016408
2456.3156,0.016313
2458.1793,0.016542
2460.0430,0.016509
2461.9066,0.016700
2463.7703,0.016975
2465.6340,0.017012
2467.4976,0.017173
2469.3613,0.017332
2471.2250,0.017168
2473.0887,0.016964
2474.9523,0.016574
2476.8160,0.016588
2478.6797,0.017120
2480.5433,0.017397
2482.4070,0.017433
2484.2707,0.017180
2486.1343,0.016968
2487.9980,0.017153
2489.8617,0.017626
2491.7253,0.018025
2493.5890,0.017698
2495.4527,0.017237
2497.3164,0.017453
2499.1800,0.017980
2501.0437,0.018192
2502.9074,0.017957
2504.7710,0.017790
2506.6347,0.018022
2508.4984,0.018078
2510.3620,0.017756
2512.2257,0.017887
2514.0894,0.018429
2515.9530,0.018779
2517.8167,0.018731
2519.6804,0.018262
2521.5440,0.017922
2523.4077,0.018172
2525.2714,0.018523
2527.1351,0.018462
