Wavenumber,Intensity
650.4205,0.102011
652.2841,0.101067
654.1478,0.100037
656.0115,0.098796
657.8751,0.098124
659.7388,0.097919
661.6025,0.096823
663.4661,0.095169
665.3298,0.094199
667.1935,0.093677
669.0571,0.093524
670.9208,0.092558
672.7845,0.092060
674.6481,0.090324
676.5118,0.090515
678.3755,0.091842
680.2392,0.090588
682.1028,0.087801
683.9665,0.087438
685.8302,0.087302
687.6938,0.087027
689.5575,0.087542
691.4212,0.088216
693.2848,0.086857
695.1485,0.086809
697.0122,0.088026
698.8758,0.088517
700.7395,0.086675
702.6032,0.085777
704.4669,0.085973
706.3305,0.084951
708.1942,0.083242
710.0579,0.081655
711.9215,0.080381
713.7852,0.079208
715.6489,0.077513
717.5125,0.075737
719.3762,0.075028
721.2399,0.074188
723.1035,0.072634
724.9672,0.072051
726.8309,0.071920
728.6945,0.071058
730.5582,0.069543
732.4219,0.068814
734.2856,0.069150
736.1492,0.069348
738.0129,0.068645
739.8766,0.068334
741.7402,0.068474
743.6039,0.068454
745.4676,0.067985
747.3312,0.068069
749.1949,0.068082
751.0586,0.067272
752.9222,0.066578
754.7859,0.066328
756.6496,0.065555
758.5132,0.065323
760.3769,0.065504
762.2406,0.065301
764.1043,0.064333
765.9679,0.063518
767.8316,0.063693
769.6953,0.064150
771.5589,0.063825
773.4226,0.063862
775.2863,0.063956
777.1499,0.064090
779.0136,0.065060
780.8773,0.065883
782.7409,0.065761
784.6046,0.065836
786.4683,0.066004
788.3320,0.066320
790.1956,0.066644
792.0593,0.066565
793.9230,0.066063
795.7866,0.065760
797.6503,0.065297
799.5140,0.064917
801.3776,0.064638
803.2413,0.064376
805.1050,0.063772
806.9686,0.063325
808.8323,0.062830
810.6960,0.062121
812.5596,0.061431
814.4233,0.060826
816.2870,0.059788
818.1507,0.059226
820.0143,0.058754
821.8780,0.058000
823.7417,0.057601
825.6053,0.057057
827.4690,0.056322
829.3327,0.055581
831.1963,0.054641
833.0600,0.053438
834.9237,0.052386
836.7873,0.051583
838.6510,0.051236
840.5147,0.050908
842.3784,0.050592
844.2420,0.050721
846.1057,0.051122
847.9694,0.051442
849.8330,0.050893
851.6967,0.050140
853.5604,0.049768
855.4240,0.049539
857.2877,0.049351
859.1514,0.049401
861.0150,0.049837
862.8787,0.050318
864.7424,0.050599
866.6060,0.051020
868.4697,0.051475
870.3334,0.051917
872.1971,0.052377
874.0607,0.052839
875.9244,0.053195
877.7881,0.053388
879.6517,0.053637
881.5154,0.054213
883.3791,0.054982
885.2427,0.055760
887.1064,0.056172
888.9701,0.056421
890.8337,0.056410
892.6974,0.056370
894.5611,0.056363
896.4247,0.056099
898.2884,0.055747
900.1521,0.055640
902.0158,0.055638
903.8794,0.055704
905.7431,0.056055
907.6068,0.056595
909.4704,0.057142
911.3341,0.057789
913.1978,0.058539
915.0614,0.059131
916.9251,0.058997
918.7888,0.058240
920.6524,0.057785
922.5161,0.058081
924.3798,0.058864
926.2435,0.059641
928.1071,0.060039
929.9708,0.060385
931.8345,0.060995
933.6981,0.061896
935.5618,0.063025
937.4255,0.064183
939.2891,0.065361
941.1528,0.066557
943.0165,0.067862
944.8801,0.069267
946.7438,0.070578
948.6075,0.072009
950.4711,0.073595
952.3348,0.075320
954.1985,0.077052
956.0622,0.078928
957.9258,0.080757
959.7895,0.082231
961.6532,0.083512
963.5168,0.084930
965.3805,0.086430
967.2442,0.087994
969.1078,0.089531
970.9715,0.091023
972.8352,0.092625
974.6988,0.094544
976.5625,0.096909
978.4262,0.100005
980.2899,0.103855
982.1535,0.106900
984.0172,0.107038
985.8809,0.106126
987.7445,0.106774
989.6082,0.108575
991.4719,0.110116
993.3355,0.111177
995.1992,0.112112
997.0629,0.113024
998.9265,0.113928
1000.7902,0.115140
1002.6539,0.116580
1004.5175,0.118116
1006.3812,0.119632
1008.2449,0.121054
1010.1086,0.122327
1011.9722,0.123432
1013.8359,0.124139
1015.6996,0.124388
1017.5632,0.124267
1019.4269,0.123841
1021.2906,0.123073
1023.1542,0.122132
1025.0179,0.120906
1026.8816,0.119585
1028.7452,0.118204
1030.6089,0.116853
1032.4726,0.115853
1034.3362,0.115099
1036.1999,0.114211
1038.0636,0.113332
1039.9273,0.112609
1041.7909,0.111959
1043.6546,0.111100
1045.5183,0.110126
1047.3819,0.109037
1049.2456,0.107691
1051.1093,0.105952
1052.9729,0.103551
1054.8366,0.100944
1056.7003,0.098802
1058.5639,0.097153
1060.4276,0.095803
1062.2913,0.094561
1064.1550,0.093306
1066.0186,0.092076
1067.8823,0.091067
1069.7460,0.090075
1071.6096,0.088935
1073.4733,0.087640
1075.3370,0.086284
1077.2006,0.084978
1079.0643,0.083684
1080.9280,0.082580
1082.7916,0.081808
1084.6553,0.080997
1086.5190,0.080205
1088.3826,0.079180
1090.2463,0.077947
1092.1100,0.076644
1093.9737,0.075263
1095.8373,0.073955
1097.7010,0.072852
1099.5647,0.071786
1101.4283,0.070759
1103.2920,0.069810
1105.1557,0.068857
1107.0193,0.067679
1108.8830,0.066226
1110.7467,0.064785
1112.6103,0.063220
1114.4740,0.061578
1116.3377,0.060132
1118.2014,0.058846
1120.0650,0.057762
1121.9287,0.056839
1123.7924,0.056043
1125.6560,0.055243
1127.5197,0.054427
1129.3834,0.053536
1131.2470,0.052526
1133.1107,0.051458
1134.9744,0.050434
1136.8380,0.049456
1138.7017,0.048511
1140.5654,0.047828
1142.4290,0.047588
1144.2927,0.047558
1146.1564,0.047573
1148.0201,0.047757
1149.8837,0.048022
1151.7474,0.048155
1153.6111,0.048210
1155.4747,0.048041
1157.3384,0.047502
1159.2021,0.046640
1161.0657,0.045524
1162.9294,0.044200
1164.7931,0.042852
1166.6567,0.041514
1168.5204,0.040190
1170.3841,0.038883
1172.2477,0.037637
1174.1114,0.036487
1175.9751,0.035400
1177.8388,0.034349
1179.7024,0.033582
1181.5661,0.033233
1183.4298,0.033140
1185.2934,0.033338
1187.1571,0.033721
1189.0208,0.034001
1190.8844,0.034205
1192.7481,0.034210
1194.6118,0.033943
1196.4754,0.033658
1198.3391,0.033351
1200.2028,0.032859
1202.0665,0.032440
1203.9301,0.032244
1205.7938,0.032081
1207.6575,0.031943
1209.5211,0.032181
1211.3848,0.032729
1213.2485,0.033440
1215.1121,0.034358
1216.9758,0.035366
1218.8395,0.036378
1220.7031,0.037352
1222.5668,0.038302
1224.4305,0.039374
1226.2941,0.040475
1228.1578,0.041634
1230.0215,0.042825
1231.8852,0.043933
1233.7488,0.044849
1235.6125,0.045615
1237.4762,0.046193
1239.3398,0.046589
1241.2035,0.046949
1243.0672,0.047269
1244.9308,0.047306
1246.7945,0.047220
1248.6582,0.047245
1250.5218,0.047310
1252.3855,0.047325
1254.2492,0.047286
1256.1129,0.047139
1257.9765,0.046859
1259.8402,0.046717
1261.7039,0.046663
1263.5675,0.046437
1265.4312,0.046086
1267.2949,0.045696
1269.1585,0.045353
1271.0222,0.045121
1272.8859,0.045028
1274.7495,0.044883
1276.6132,0.044738
1278.4769,0.044699
1280.3405,0.044649
1282.2042,0.044479
1284.0679,0.044144
1285.9316,0.043794
1287.7952,0.043576
1289.6589,0.043349
1291.5226,0.043272
1293.3862,0.043324
1295.2499,0.043516
1297.1136,0.043823
1298.9772,0.043968
1300.8409,0.044042
1302.7046,0.044305
1304.5682,0.044786
1306.4319,0.045194
1308.2956,0.044684
1310.1592,0.043224
1312.0229,0.041924
1313.8866,0.041371
1315.7503,0.041304
1317.6139,0.041495
1319.4776,0.041963
1321.3413,0.042462
1323.2049,0.042932
1325.0686,0.043435
1326.9323,0.043983
1328.7959,0.044602
1330.6596,0.044975
1332.5233,0.045026
1334.3869,0.044529
1336.2506,0.043589
1338.1143,0.043077
1339.9780,0.043315
1341.8416,0.043123
1343.7053,0.042855
1345.5690,0.043029
1347.4326,0.043437
1349.2963,0.044114
1351.1600,0.044869
1353.0236,0.045716
1354.8873,0.046847
1356.7510,0.047688
1358.6146,0.048024
1360.4783,0.048711
1362.3420,0.050458
1364.2056,0.051633
1366.0693,0.051603
1367.9330,0.052135
1369.7967,0.052703
1371.6603,0.052613
1373.5240,0.053200
1375.3877,0.053867
1377.2513,0.053539
1379.1150,0.053197
1380.9787,0.052806
1382.8423,0.052402
1384.7060,0.052143
1386.5697,0.053031
1388.4333,0.054464
1390.2970,0.054644
1392.1607,0.054664
1394.0244,0.055756
1395.8880,0.057075
1397.7517,0.057325
1399.6154,0.057738
1401.4790,0.057173
1403.3427,0.056843
1405.2064,0.057136
1407.0700,0.055994
1408.9337,0.054041
1410.7974,0.052308
1412.6610,0.050499
1414.5247,0.048805
1416.3884,0.047795
1418.2520,0.048158
1420.1157,0.048149
1421.9794,0.046522
1423.8431,0.045251
1425.7067,0.043430
1427.5704,0.041538
1429.4341,0.040415
1431.2977,0.039376
1433.1614,0.038089
1435.0251,0.037642
1436.8887,0.038723
1438.7524,0.038642
1440.6161,0.038046
1442.4797,0.037968
1444.3434,0.037679
1446.2071,0.037495
1448.0707,0.037728
1449.9344,0.037221
1451.7981,0.036115
1453.6618,0.034791
1455.5254,0.034406
1457.3891,0.036263
1459.2528,0.035707
1461.1164,0.033810
1462.9801,0.033126
1464.8438,0.033646
1466.7074,0.033179
1468.5711,0.031759
1470.4348,0.030939
1472.2984,0.031456
1474.1621,0.031654
1476.0258,0.030989
1477.8895,0.030158
1479.7531,0.029423
1481.6168,0.029153
1483.4805,0.028723
1485.3441,0.028332
1487.2078,0.028518
1489.0715,0.029532
1490.9351,0.030410
1492.7988,0.029496
1494.6625,0.028998
1496.5261,0.029920
1498.3898,0.031105
1500.2535,0.031002
1502.1171,0.030178
1503.9808,0.029431
1505.8445,0.030577
1507.7082,0.034845
1509.5718,0.034150
1511.4355,0.033365
1513.2992,0.033125
1515.1628,0.033308
1517.0265,0.034101
1518.8902,0.033992
1520.7538,0.035002
1522.6175,0.036712
1524.4812,0.036554
1526.3448,0.037142
1528.2085,0.037478
1530.0722,0.036826
1531.9359,0.037076
1533.7995,0.038752
1535.6632,0.038266
1537.5269,0.037188
1539.3905,0.038931
1541.2542,0.043052
1543.1179,0.043262
1544.9815,0.043609
1546.8452,0.043130
1548.7089,0.043134
1550.5725,0.044272
1552.4362,0.044339
1554.2999,0.044221
1556.1635,0.044105
1558.0272,0.047252
1559.8909,0.056051
1561.7546,0.051609
1563.6182,0.049438
1565.4819,0.049821
1567.3456,0.050344
1569.2092,0.052533
1571.0729,0.054189
1572.9366,0.052957
1574.8002,0.053883
1576.6639,0.058605
1578.5276,0.059578
1580.3912,0.058880
1582.2549,0.059865
1584.1186,0.061239
1585.9822,0.062489
1587.8459,0.063672
1589.7096,0.064813
1591.5733,0.065632
1593.4369,0.066299
1595.3006,0.066948
1597.1643,0.067064
1599.0279,0.066746
1600.8916,0.066668
1602.7553,0.066435
1604.6189,0.065415
1606.4826,0.064057
1608.3463,0.063279
1610.2099,0.062142
1612.0736,0.060391
1613.9373,0.058610
1615.8010,0.058228
1617.6646,0.057828
1619.5283,0.055109
1621.3920,0.053543
1623.2556,0.053163
1625.1193,0.051457
1626.9830,0.049829
1628.8466,0.048362
1630.7103,0.046179
1632.5740,0.044062
1634.4376,0.042971
1636.3013,0.042708
1638.1650,0.041148
1640.0286,0.039472
1641.8923,0.038034
1643.7560,0.037040
1645.6197,0.037109
1647.4833,0.037148
1649.3470,0.035373
1651.2107,0.034815
1653.0743,0.037175
1654.9380,0.037244
1656.8017,0.034990
1658.6653,0.034092
1660.5290,0.033779
1662.3927,0.033897
1664.2563,0.033362
1666.1200,0.032181
1667.9837,0.031745
1669.8474,0.031724
1671.7110,0.030997
1673.5747,0.030702
1675.4384,0.030997
1677.3020,0.029916
1679.1657,0.028763
1681.0294,0.028126
1682.8930,0.028314
1684.7567,0.029598
1686.6204,0.028431
1688.4840,0.027600
1690.3477,0.027171
1692.2114,0.026210
1694.0750,0.025503
1695.9387,0.025312
1697.8024,0.024576
1699.6661,0.024706
1701.5297,0.024855
1703.3934,0.023831
1705.2571,0.023619
1707.1207,0.023417
1708.9844,0.022765
1710.8481,0.022218
1712.7117,0.021808
1714.5754,0.021573
1716.4391,0.021852
1718.3027,0.022580
1720.1664,0.022163
1722.0301,0.021611
1723.8937,0.021217
1725.7574,0.020458
1727.6211,0.019536
1729.4848,0.018663
1731.3484,0.017827
1733.2121,0.017339
1735.0758,0.016548
1736.9394,0.015587
1738.8031,0.015113
1740.6668,0.014204
1742.5304,0.013218
1744.3941,0.012456
1746.2578,0.011682
1748.1214,0.011169
1749.9851,0.010832
1751.8488,0.010493
1753.7125,0.009929
1755.5761,0.009547
1757.4398,0.009272
1759.3035,0.009026
1761.1671,0.008926
1763.0308,0.008564
1764.8945,0.008372
1766.7581,0.008501
1768.6218,0.008395
1770.4855,0.008131
1772.3491,0.008192
1774.2128,0.008273
1776.0765,0.008303
1777.9401,0.008312
1779.8038,0.008225
1781.6675,0.008148
1783.5312,0.008258
1785.3948,0.008214
1787.2585,0.007997
1789.1222,0.008016
1790.9858,0.008207
1792.8495,0.008141
1794.7132,0.008052
1796.5768,0.008174
1798.4405,0.008089
1800.3042,0.008007
1802.1678,0.008222
1804.0315,0.008391
1805.8952,0.008350
1807.7589,0.008182
1809.6225,0.008056
1811.4862,0.008167
1813.3499,0.008212
1815.2135,0.008128
1817.0772,0.008094
1818.9409,0.008171
1820.8045,0.008282
1822.6682,0.008274
1824.5319,0.008241
1826.3955,0.008159
1828.2592,0.008315
1830.1229,0.008409
1831.9865,0.008070
1833.8502,0.008005
1835.7139,0.008141
1837.5776,0.008056
1839.4412,0.007964
1841.3049,0.008113
1843.1686,0.008317
1845.0322,0.008320
1846.8959,0.008171
1848.7596,0.008127
1850.6232,0.008250
1852.4869,0.008411
1854.3506,0.008259
1856.2142,0.008229
1858.0779,0.008392
1859.9416,0.008462
1861.8052,0.008321
1863.6689,0.007858
1865.5326,0.007853
1867.3963,0.008304
1869.2599,0.008502
1871.1236,0.008274
1872.9873,0.008119
1874.8509,0.008236
1876.7146,0.008466
1878.5783,0.008397
1880.4419,0.008243
1882.3056,0.008309
1884.1693,0.008357
1886.0329,0.008346
1887.8966,0.008203
1889.7603,0.008000
1891.6240,0.007943
1893.4876,0.007923
1895.3513,0.008183
1897.2150,0.008391
1899.0786,0.008245
1900.9423,0.008204
1902.8060,0.008098
1904.6696,0.007891
1906.5333,0.007799
1908.3970,0.007491
1910.2606,0.007506
1912.1243,0.007850
1913.9880,0.007707
1915.8516,0.007533
1917.7153,0.007478
1919.5790,0.007763
1921.4427,0.007945
1923.3063,0.007859
1925.1700,0.008013
1927.0337,0.008116
1928.8973,0.008181
1930.7610,0.007894
1932.6247,0.007669
1934.4883,0.007652
1936.3520,0.007030
1938.2157,0.006871
1940.0793,0.006975
1941.9430,0.006652
1943.8067,0.006491
1945.6704,0.006251
1947.5340,0.006944
1949.3977,0.007504
1951.2614,0.006917
1953.1250,0.006675
1954.9887,0.006096
1956.8524,0.004763
1958.7160,0.003592
1960.5797,0.003820
1962.4434,0.004750
1964.3070,0.004824
1966.1707,0.004394
1968.0344,0.003751
1969.8980,0.005136
1971.7617,0.006810
1973.6254,0.005541
1975.4891,0.004428
1977.3527,0.004665
1979.2164,0.004876
1981.0801,0.005419
1982.9437,0.006538
1984.8074,0.006877
1986.6711,0.005823
1988.5347,0.005517
1990.3984,0.006088
1992.2621,0.006224
1994.1257,0.005558
1995.9894,0.004891
1997.8531,0.005107
1999.7167,0.005709
2001.5804,0.005556
2003.4441,0.004825
2005.3078,0.004239
2007.1714,0.003896
2009.0351,0.004010
2010.8988,0.004607
2012.7624,0.004946
2014.6261,0.004978
2016.4898,0.004807
2018.3534,0.003826
2020.2171,0.002941
2022.0808,0.003039
2023.9444,0.003705
2025.8081,0.003871
2027.6718,0.004835
2029.5355,0.004655
2031.3991,0.002385
2033.2628,0.001979
2035.1265,0.002535
2036.9901,0.004068
2038.8538,0.005324
2040.7175,0.004622
2042.5811,0.004898
2044.4448,0.005914
2046.3085,0.006690
2048.1721,0.007560
2050.0358,0.008119
2051.8995,0.007966
2053.7631,0.007335
2055.6268,0.007106
2057.4905,0.006991
2059.3542,0.007396
2061.2178,0.008194
2063.0815,0.008065
2064.9452,0.007888
2066.8088,0.008532
2068.6725,0.008785
2070.5362,0.008849
2072.3998,0.008983
2074.2635,0.008895
2076.1272,0.008605
2077.9908,0.008768
2079.8545,0.009294
2081.7182,0.009387
2083.5819,0.009317
2085.4455,0.008879
2087.3092,0.008733
2089.1729,0.009060
2091.0365,0.009289
2092.9002,0.009318
2094.7639,0.008686
2096.6275,0.008349
2098.4912,0.008712
2100.3549,0.008855
2102.2185,0.009127
2104.0822,0.009336
2105.9459,0.009636
2107.8095,0.010056
2109.6732,0.009577
2111.5369,0.009232
2113.4006,0.009490
2115.2642,0.009534
2117.1279,0.009565
2118.9916,0.009724
2120.8552,0.009710
2122.7189,0.009834
2124.5826,0.010035
2126.4462,0.009323
2128.3099,0.008412
2130.1736,0.007819
2132.0372,0.007315
2133.9009,0.007394
2135.7646,0.007504
2137.6282,0.007322
2139.4919,0.007055
2141.3556,0.006917
2143.2193,0.006972
2145.0829,0.006689
2146.9466,0.006380
2148.8103,0.006046
2150.6739,0.004956
2152.5376,0.003854
2154.4013,0.002687
2156.2649,0.001597
2158.1286,0.002669
2159.9923,0.004261
2161.8559,0.005262
2163.7196,0.006181
2165.5833,0.006265
2167.4470,0.005761
2169.3106,0.005387
2171.1743,0.005875
2173.0380,0.006302
2174.9016,0.006622
2176.7653,0.006682
2178.6290,0.005392
2180.4926,0.004706
2182.3563,0.005674
2184.2200,0.007020
2186.0836,0.007073
2187.9473,0.007358
2189.8110,0.008643
2191.6746,0.009129
2193.5383,0.008780
2195.4020,0.008114
2197.2657,0.007665
2199.1293,0.008224
2200.9930,0.008905
2202.8567,0.007708
2204.7203,0.006500
2206.5840,0.007411
2208.4477,0.009268
2210.3113,0.009707
2212.1750,0.008609
2214.0387,0.008233
2215.9023,0.008964
2217.7660,0.009662
2219.6297,0.009799
2221.4934,0.009164
2223.3570,0.008532
2225.2207,0.008895
2227.0844,0.009363
2228.9480,0.009144
2230.8117,0.009256
2232.6754,0.009903
2234.5390,0.009861
2236.4027,0.009313
2238.2664,0.009412
2240.1300,0.010192
2241.9937,0.010575
2243.8574,0.010273
2245.7210,0.010138
2247.5847,0.010304
2249.4484,0.010636
2251.3121,0.010998
2253.1757,0.010957
2255.0394,0.010767
2256.9031,0.010762
2258.7667,0.010480
2260.6304,0.010205
2262.4941,0.010831
2264.3577,0.011386
2266.2214,0.011176
2268.0851,0.011124
2269.9487,0.011539
2271.8124,0.011430
2273.6761,0.011294
2275.5397,0.011568
2277.4034,0.011688
2279.2671,0.012140
2281.1308,0.012568
2282.9944,0.012337
2284.8581,0.012070
2286.7218,0.012099
2288.5854,0.012338
2290.4491,0.012517
2292.3128,0.012399
2294.1764,0.012299
2296.0401,0.012432
2297.9038,0.012537
2299.7674,0.012590
2301.6311,0.012613
2303.4948,0.012553
2305.3585,0.012753
2307.2221,0.012935
2309.0858,0.012707
2310.9495,0.012622
2312.8131,0.012879
2314.6768,0.012828
2316.5405,0.012849
2318.4041,0.013176
2320.2678,0.013596
2322.1315,0.013808
2323.9951,0.013545
2325.8588,0.013198
2327.7225,0.012840
2329.5861,0.012355
2331.4498,0.012069
2333.3135,0.012084
2335.1772,0.012315
2337.0408,0.012577
2338.9045,0.012812
2340.7682,0.012855
2342.6318,0.012878
2344.4955,0.013016
2346.3592,0.012864
2348.2228,0.012638
2350.0865,0.012349
2351.9502,0.012060
2353.8138,0.012304
2355.6775,0.012652
2357.5412,0.012679
2359.4049,0.012493
2361.2685,0.012582
2363.1322,0.012417
2364.9959,0.011971
2366.8595,0.012022
2368.7232,0.012175
2370.5869,0.011983
2372.4505,0.012215
2374.3142,0.012828
2376.1779,0.012797
2378.0415,0.012427
2379.9052,0.012407
2381.7689,0.012523
2383.6325,0.012489
2385.4962,0.012534
2387.3599,0.012666
2389.2236,0.012695
2391.0872,0.012732
2392.9509,0.012621
2394.8146,0.012592
2396.6782,0.012698
2398.5419,0.012896
2400.4056,0.012922
2402.2692,0.012592
2404.1329,0.012540
2405.9966,0.012647
2407.8602,0.012787
2409.7239,0.012905
2411.5876,0.012687
2413.4512,0.012458
2415.3149,0.012869
2417.1786,0.013348
2419.0423,0.013325
2420.9059,0.013185
2422.7696,0.013139
2424.6333,0.012936
2426.4969,0.012886
2428.3606,0.013344
2430.2243,0.013671
2432.0879,0.013444
2433.9516,0.012957
2435.8153,0.013158
2437.6789,0.013643
2439.5426,0.013683
2441.4063,0.013888
2443.2700,0.013920
2445.1336,0.013476
2446.9973,0.013405
2448.8610,0.013521
2450.7246,0.013744
2452.5883,0.014053
2454.4520,0.013928
2456.3156,0.013498
2458.1793,0.013717
2460.0430,0.014044
2461.9066,0.013747
2463.7703,0.013833
2465.6340,0.014215
2467.4976,0.014059
2469.3613,0.013824
2471.2250,0.013761
2473.0887,0.013794
2474.9523,0.013703
2476.8160,0.013748
2478.6797,0.014031
2480.5433,0.014395
2482.4070,0.014317
2484.2707,0.014182
2486.1343,0.014481
2487.9980,0.014639
2489.8617,0.014526
2491.7253,0.014511
2493.5890,0.014583
2495.4527,0.014881
2497.3164,0.014964
2499.1800,0.014746
2501.0437,0.014782
2502.9074,0.014870
2504.7710,0.014652
2506.6347,0.014564
2508.4984,0.014518
2510.3620,0.014347
2512.2257,0.014602
2514.0894,0.015145
2515.9530,0.015226
2517.8167,0.015180
2519.6804,0.015146
2521.5440,0.015280
2523.4077,0.015694
2525.2714,0.015718
2527.1351,0.015115
