Wavenumber,Intensity
650.4205,0.108987
652.2841,0.116183
654.1478,0.125605
656.0115,0.135522
657.8751,0.145695
659.7388,0.154663
661.6025,0.168084
663.4661,0.182539
665.3298,0.192925
667.1935,0.201402
669.0571,0.203010
670.9208,0.190058
672.7845,0.175962
674.6481,0.162324
676.5118,0.152069
678.3755,0.142760
680.2392,0.134690
682.1028,0.126353
683.9665,0.118001
685.8302,0.111004
687.6938,0.104917
689.5575,0.099678
691.4212,0.094772
693.2848,0.089507
695.1485,0.084653
697.0122,0.081251
698.8758,0.079000
700.7395,0.078268
702.6032,0.078682
704.4669,0.077564
706.3305,0.075083
708.1942,0.071587
710.0579,0.068410
711.9215,0.066124
713.7852,0.063716
715.6489,0.061547
717.5125,0.060266
719.3762,0.059490
721.2399,0.058667
723.1035,0.057726
724.9672,0.056601
726.8309,0.056204
728.6945,0.056881
730.5582,0.057353
732.4219,0.057521
734.2856,0.056658
736.1492,0.054728
738.0129,0.053565
739.8766,0.054431
741.7402,0.055864
743.6039,0.056294
745.4676,0.055716
747.3312,0.054881
749.1949,0.054442
751.0586,0.054510
752.9222,0.054420
754.7859,0.054497
756.6496,0.055113
758.5132,0.056099
760.3769,0.056841
762.2406,0.057321
764.1043,0.057654
765.9679,0.057867
767.8316,0.057871
769.6953,0.058270
771.5589,0.058630
773.4226,0.059312
775.2863,0.060594
777.1499,0.062093
779.0136,0.063834
780.8773,0.065211
782.7409,0.066148
784.6046,0.067391
786.4683,0.068577
788.3320,0.068833
790.1956,0.068751
792.0593,0.068814
793.9230,0.069209
795.7866,0.070403
797.6503,0.071733
799.5140,0.072968
801.3776,0.074339
803.2413,0.075034
805.1050,0.074510
806.9686,0.073750
808.8323,0.073388
810.6960,0.073622
812.5596,0.073826
814.4233,0.074220
816.2870,0.074986
818.1507,0.075410
820.0143,0.075096
821.8780,0.074738
823.7417,0.074937
825.6053,0.075839
827.4690,0.076962
829.3327,0.078033
831.1963,0.078025
833.0600,0.076596
834.9237,0.075470
836.7873,0.075613
838.6510,0.076296
840.5147,0.077151
842.3784,0.078302
844.2420,0.079767
846.1057,0.081266
847.9694,0.083016
849.8330,0.085121
851.6967,0.088074
853.5604,0.091729
855.4240,0.095214
857.2877,0.097112
859.1514,0.096730
861.0150,0.095257
862.8787,0.094341
864.7424,0.094184
866.6060,0.094485
868.4697,0.095062
870.3334,0.096327
872.1971,0.097570
874.0607,0.098530
875.9244,0.099700
877.7881,0.101001
879.6517,0.102250
881.5154,0.103549
883.3791,0.104810
885.2427,0.106203
887.1064,0.107635
888.9701,0.109489
890.8337,0.111536
892.6974,0.113533
894.5611,0.115518
896.4247,0.117697
898.2884,0.120371
900.1521,0.123529
902.0158,0.126708
903.8794,0.129621
905.7431,0.131824
907.6068,0.133508
909.4704,0.135451
911.3341,0.138094
913.1978,0.140726
915.0614,0.142121
916.9251,0.141179
918.7888,0.139183
920.6524,0.138408
922.5161,0.139333
924.3798,0.141210
926.2435,0.143535
928.1071,0.146077
929.9708,0.149019
931.8345,0.152407
933.6981,0.155931
935.5618,0.158636
937.4255,0.159857
939.2891,0.160167
941.1528,0.160923
943.0165,0.162316
944.8801,0.164099
946.7438,0.166275
948.6075,0.168888
950.4711,0.171626
952.3348,0.174409
954.1985,0.177450
956.0622,0.180695
957.9258,0.183054
959.7895,0.184580
961.6532,0.186551
963.5168,0.189182
965.3805,0.191868
967.2442,0.194987
969.1078,0.198573
970.9715,0.202198
972.8352,0.205758
974.6988,0.209796
976.5625,0.214631
978.4262,0.220761
980.2899,0.227689
982.1535,0.231506
984.0172,0.228816
985.8809,0.224762
987.7445,0.224236
989.6082,0.226112
991.4719,0.228565
993.3355,0.231424
995.1992,0.234572
997.0629,0.238036
998.9265,0.241237
1000.7902,0.243654
1002.6539,0.245259
1004.5175,0.246818
1006.3812,0.248270
1008.2449,0.248631
1010.1086,0.246612
1011.9722,0.241973
1013.8359,0.235395
1015.6996,0.227637
1017.5632,0.219426
1019.4269,0.211686
1021.2906,0.204296
1023.1542,0.197168
1025.0179,0.190424
1026.8816,0.184085
1028.7452,0.177582
1030.6089,0.170588
1032.4726,0.163611
1034.3362,0.157309
1036.1999,0.151557
1038.0636,0.146290
1039.9273,0.141335
1041.7909,0.136735
1043.6546,0.132533
1045.5183,0.128515
1047.3819,0.124435
1049.2456,0.120390
1051.1093,0.116557
1052.9729,0.113496
1054.8366,0.111508
1056.7003,0.110337
1058.5639,0.109488
1060.4276,0.108809
1062.2913,0.108267
1064.1550,0.107858
1066.0186,0.107570
1067.8823,0.107376
1069.7460,0.107341
1071.6096,0.107367
1073.4733,0.107186
1075.3370,0.106691
1077.2006,0.105844
1079.0643,0.104950
1080.9280,0.104189
1082.7916,0.103590
1084.6553,0.103020
1086.5190,0.102564
1088.3826,0.102363
1090.2463,0.102389
1092.1100,0.102505
1093.9737,0.102797
1095.8373,0.103181
1097.7010,0.103511
1099.5647,0.103751
1101.4283,0.103773
1103.2920,0.103437
1105.1557,0.102755
1107.0193,0.101443
1108.8830,0.099301
1110.7467,0.096260
1112.6103,0.092522
1114.4740,0.088671
1116.3377,0.085390
1118.2014,0.082773
1120.0650,0.080552
1121.9287,0.078649
1123.7924,0.076892
1125.6560,0.074951
1127.5197,0.072729
1129.3834,0.070452
1131.2470,0.068477
1133.1107,0.066867
1134.9744,0.065560
1136.8380,0.064346
1138.7017,0.063118
1140.5654,0.062065
1142.4290,0.061070
1144.2927,0.059833
1146.1564,0.058310
1148.0201,0.056712
1149.8837,0.055446
1151.7474,0.054774
1153.6111,0.054442
1155.4747,0.054110
1157.3384,0.053507
1159.2021,0.052293
1161.0657,0.050814
1162.9294,0.049639
1164.7931,0.048913
1166.6567,0.048578
1168.5204,0.048532
1170.3841,0.048621
1172.2477,0.048624
1174.1114,0.048259
1175.9751,0.047474
1177.8388,0.046598
1179.7024,0.046000
1181.5661,0.045754
1183.4298,0.045822
1185.2934,0.046284
1187.1571,0.046867
1189.0208,0.047229
1190.8844,0.047092
1192.7481,0.046209
1194.6118,0.045144
1196.4754,0.044515
1198.3391,0.044258
1200.2028,0.044099
1202.0665,0.043849
1203.9301,0.043540
1205.7938,0.043251
1207.6575,0.042935
1209.5211,0.042582
1211.3848,0.042233
1213.2485,0.041880
1215.1121,0.041515
1216.9758,0.041146
1218.8395,0.040785
1220.7031,0.040461
1222.5668,0.040097
1224.4305,0.039640
1226.2941,0.039098
1228.1578,0.038590
1230.0215,0.038238
1231.8852,0.037999
1233.7488,0.037875
1235.6125,0.037818
1237.4762,0.037738
1239.3398,0.037780
1241.2035,0.037749
1243.0672,0.037292
1244.9308,0.036697
1246.7945,0.036281
1248.6582,0.035908
1250.5218,0.035560
1252.3855,0.035376
1254.2492,0.035309
1256.1129,0.035187
1257.9765,0.034971
1259.8402,0.034840
1261.7039,0.034927
1263.5675,0.035110
1265.4312,0.035051
1267.2949,0.034702
1269.1585,0.034411
1271.0222,0.034340
1272.8859,0.034398
1274.7495,0.034524
1276.6132,0.034860
1278.4769,0.035468
1280.3405,0.036261
1282.2042,0.037305
1284.0679,0.038488
1285.9316,0.039287
1287.7952,0.039369
1289.6589,0.039123
1291.5226,0.039101
1293.3862,0.039376
1295.2499,0.039945
1297.1136,0.040919
1298.9772,0.042384
1300.8409,0.044346
1302.7046,0.046482
1304.5682,0.048205
1306.4319,0.048732
1308.2956,0.047429
1310.1592,0.044623
1312.0229,0.041709
1313.8866,0.039989
1315.7503,0.039508
1317.6139,0.039753
1319.4776,0.040434
1321.3413,0.040946
1323.2049,0.041125
1325.0686,0.041361
1326.9323,0.041741
1328.7959,0.042138
1330.6596,0.042486
1332.5233,0.042626
1334.3869,0.042476
1336.2506,0.042478
1338.1143,0.043042
1339.9780,0.043376
1341.8416,0.042321
1343.7053,0.040777
1345.5690,0.039932
1347.4326,0.040101
1349.2963,0.040862
1351.1600,0.041425
1353.0236,0.041593
1354.8873,0.041894
1356.7510,0.042589
1358.6146,0.043441
1360.4783,0.044009
1362.3420,0.043969
1364.2056,0.043414
1366.0693,0.043124
1367.9330,0.043463
1369.7967,0.044035
1371.6603,0.044682
1373.5240,0.045972
1375.3877,0.047473
1377.2513,0.048334
1379.1150,0.049251
1380.9787,0.050194
1382.8423,0.050986
1384.7060,0.052114
1386.5697,0.054086
1388.4333,0.056420
1390.2970,0.057663
1392.1607,0.058585
1394.0244,0.059707
1395.8880,0.059941
1397.7517,0.059140
1399.6154,0.058132
1401.4790,0.056913
1403.3427,0.056047
1405.2064,0.054844
1407.0700,0.052293
1408.9337,0.049374
1410.7974,0.046825
1412.6610,0.045043
1414.5247,0.044250
1416.3884,0.044317
1418.2520,0.045372
1420.1157,0.046658
1421.9794,0.046432
1423.8431,0.045085
1425.7067,0.042115
1427.5704,0.038945
1429.4341,0.036819
1431.2977,0.035598
1433.1614,0.035121
1435.0251,0.035667
1436.8887,0.037507
1438.7524,0.038407
1440.6161,0.038167
1442.4797,0.038360
1444.3434,0.038849
1446.2071,0.039693
1448.0707,0.040942
1449.9344,0.041392
1451.7981,0.040776
1453.6618,0.039971
1455.5254,0.040229
1457.3891,0.042906
1459.2528,0.044351
1461.1164,0.044162
1462.9801,0.044574
1464.8438,0.044813
1466.7074,0.043431
1468.5711,0.041783
1470.4348,0.041091
1472.2984,0.041341
1474.1621,0.041016
1476.0258,0.040150
1477.8895,0.039726
1479.7531,0.039781
1481.6168,0.040456
1483.4805,0.041179
1485.3441,0.041721
1487.2078,0.042467
1489.0715,0.043536
1490.9351,0.043975
1492.7988,0.043396
1494.6625,0.043434
1496.5261,0.044551
1498.3898,0.045129
1500.2535,0.044256
1502.1171,0.042871
1503.9808,0.041462
1505.8445,0.040850
1507.7082,0.040975
1509.5718,0.039766
1511.4355,0.038805
1513.2992,0.038179
1515.1628,0.037872
1517.0265,0.038045
1518.8902,0.038461
1520.7538,0.039547
1522.6175,0.041102
1524.4812,0.041394
1526.3448,0.041875
1528.2085,0.041864
1530.0722,0.040930
1531.9359,0.040352
1533.7995,0.040243
1535.6632,0.039464
1537.5269,0.038860
1539.3905,0.039551
1541.2542,0.041385
1543.1179,0.041898
1544.9815,0.042007
1546.8452,0.041494
1548.7089,0.041048
1550.5725,0.041045
1552.4362,0.040884
1554.2999,0.040626
1556.1635,0.040649
1558.0272,0.042388
1559.8909,0.046124
1561.7546,0.045249
1563.6182,0.045051
1565.4819,0.045989
1567.3456,0.047163
1569.2092,0.048945
1571.0729,0.050593
1572.9366,0.050873
1574.8002,0.052114
1576.6639,0.054756
1578.5276,0.055691
1580.3912,0.055760
1582.2549,0.056379
1584.1186,0.056929
1585.9822,0.057383
1587.8459,0.057977
1589.7096,0.058749
1591.5733,0.059379
1593.4369,0.059803
1595.3006,0.060011
1597.1643,0.059890
1599.0279,0.059263
1600.8916,0.058404
1602.7553,0.057321
1604.6189,0.056080
1606.4826,0.055051
1608.3463,0.054303
1610.2099,0.053746
1612.0736,0.053223
1613.9373,0.052949
1615.8010,0.053309
1617.6646,0.053477
1619.5283,0.052380
1621.3920,0.051529
1623.2556,0.050731
1625.1193,0.049019
1626.9830,0.047234
1628.8466,0.044935
1630.7103,0.042070
1632.5740,0.039713
1634.4376,0.037854
1636.3013,0.035762
1638.1650,0.034010
1640.0286,0.033323
1641.8923,0.032477
1643.7560,0.031470
1645.6197,0.030645
1647.4833,0.029378
1649.3470,0.028237
1651.2107,0.028176
1653.0743,0.028673
1654.9380,0.028592
1656.8017,0.028332
1658.6653,0.028339
1660.5290,0.028142
1662.3927,0.027887
1664.2563,0.027350
1666.1200,0.026732
1667.9837,0.026250
1669.8474,0.025857
1671.7110,0.025442
1673.5747,0.025258
1675.4384,0.025357
1677.3020,0.025256
1679.1657,0.025210
1681.0294,0.025675
1682.8930,0.026373
1684.7567,0.027454
1686.6204,0.027399
1688.4840,0.027098
1690.3477,0.026826
1692.2114,0.026246
1694.0750,0.025785
1695.9387,0.025260
1697.8024,0.024027
1699.6661,0.023394
1701.5297,0.022256
1703.3934,0.020777
1705.2571,0.019374
1707.1207,0.017610
1708.9844,0.016366
1710.8481,0.015454
1712.7117,0.014591
1714.5754,0.013921
1716.4391,0.013360
1718.3027,0.012968
1720.1664,0.012702
1722.0301,0.012592
1723.8937,0.012286
1725.7574,0.011910
1727.6211,0.011606
1729.4848,0.011305
1731.3484,0.011045
1733.2121,0.010801
1735.0758,0.010609
1736.9394,0.010536
1738.8031,0.010545
1740.6668,0.010475
1742.5304,0.010433
1744.3941,0.010642
1746.2578,0.010616
1748.1214,0.010785
1749.9851,0.011373
1751.8488,0.011515
1753.7125,0.011361
1755.5761,0.011401
1757.4398,0.011357
1759.3035,0.011172
1761.1671,0.010896
1763.0308,0.010369
1764.8945,0.009845
1766.7581,0.009674
1768.6218,0.009484
1770.4855,0.009201
1772.3491,0.009029
1774.2128,0.008677
1776.0765,0.008387
1777.9401,0.008454
1779.8038,0.008544
1781.6675,0.008633
1783.5312,0.008664
1785.3948,0.008657
1787.2585,0.008558
1789.1222,0.008520
1790.9858,0.008537
1792.8495,0.008541
1794.7132,0.008400
1796.5768,0.008359
1798.4405,0.008591
1800.3042,0.008846
1802.1678,0.008714
1804.0315,0.008551
1805.8952,0.008724
1807.7589,0.008917
1809.6225,0.008726
1811.4862,0.008661
1813.3499,0.008730
1815.2135,0.008659
1817.0772,0.008633
1818.9409,0.008911
1820.8045,0.008975
1822.6682,0.008850
1824.5319,0.008670
1826.3955,0.008456
1828.2592,0.008313
1830.1229,0.008107
1831.9865,0.008036
1833.8502,0.008331
1835.7139,0.008406
1837.5776,0.008324
1839.4412,0.008277
1841.3049,0.008296
1843.1686,0.008240
1845.0322,0.008065
1846.8959,0.007944
1848.7596,0.008040
1850.6232,0.008010
1852.4869,0.007993
1854.3506,0.008100
1856.2142,0.008140
1858.0779,0.008228
1859.9416,0.008360
1861.8052,0.008343
1863.6689,0.008360
1865.5326,0.008363
1867.3963,0.008085
1869.2599,0.007633
1871.1236,0.007733
1872.9873,0.008099
1874.8509,0.008107
1876.7146,0.008094
1878.5783,0.008315
1880.4419,0.008193
1882.3056,0.007999
1884.1693,0.007781
1886.0329,0.007674
1887.8966,0.007680
1889.7603,0.007625
1891.6240,0.007524
1893.4876,0.007671
1895.3513,0.007954
1897.2150,0.008152
1899.0786,0.008022
1900.9423,0.007815
1902.8060,0.007780
1904.6696,0.007603
1906.5333,0.007300
1908.3970,0.007423
1910.2606,0.007310
1912.1243,0.007005
1913.9880,0.006995
1915.8516,0.007388
1917.7153,0.007532
1919.5790,0.006890
1921.4427,0.006490
1923.3063,0.006670
1925.1700,0.007515
1927.0337,0.008023
1928.8973,0.007551
1930.7610,0.007404
1932.6247,0.006828
1934.4883,0.006252
1936.3520,0.006476
1938.2157,0.006709
1940.0793,0.006526
1941.9430,0.006207
1943.8067,0.005234
1945.6704,0.004502
1947.5340,0.004405
1949.3977,0.005129
1951.2614,0.005973
1953.1250,0.005872
1954.9887,0.005404
1956.8524,0.004757
1958.7160,0.004141
1960.5797,0.003855
1962.4434,0.003358
1964.3070,0.002367
1966.1707,0.001561
1968.0344,0.001982
1969.8980,0.002262
1971.7617,0.002017
1973.6254,0.001456
1975.4891,0.000685
1977.3527,-0.000155
1979.2164,0.000311
1981.0801,0.001748
1982.9437,0.002920
1984.8074,0.002332
1986.6711,0.002610
1988.5347,0.003147
1990.3984,0.002848
1992.2621,0.001668
1994.1257,0.001180
1995.9894,0.002461
1997.8531,0.002544
1999.7167,0.001555
2001.5804,0.002407
2003.4441,0.002909
2005.3078,0.001938
2007.1714,0.001070
2009.0351,0.000176
2010.8988,0.000786
2012.7624,0.001806
2014.6261,0.000301
2016.4898,-0.000735
2018.3534,-0.000598
2020.2171,0.000050
2022.0808,0.000451
2023.9444,0.000143
2025.8081,-0.000155
2027.6718,0.000670
2029.5355,0.000270
2031.3991,-0.000534
2033.2628,-0.000512
2035.1265,0.000330
2036.9901,0.000810
2038.8538,0.001604
2040.7175,0.002094
2042.5811,0.002768
2044.4448,0.003112
2046.3085,0.003563
2048.1721,0.003286
2050.0358,0.003525
2051.8995,0.004610
2053.7631,0.004758
2055.6268,0.004832
2057.4905,0.004932
2059.3542,0.005239
2061.2178,0.005502
2063.0815,0.005846
2064.9452,0.006428
2066.8088,0.005780
2068.6725,0.005626
2070.5362,0.006514
2072.3998,0.006586
2074.2635,0.006681
2076.1272,0.006777
2077.9908,0.006766
2079.8545,0.007579
2081.7182,0.008299
2083.5819,0.007901
2085.4455,0.007113
2087.3092,0.007777
2089.1729,0.008050
2091.0365,0.007946
2092.9002,0.007671
2094.7639,0.007436
2096.6275,0.007546
2098.4912,0.007766
2100.3549,0.007676
2102.2185,0.007935
2104.0822,0.008195
2105.9459,0.008567
2107.8095,0.008559
2109.6732,0.008285
2111.5369,0.007901
2113.4006,0.007711
2115.2642,0.008183
2117.1279,0.008735
2118.9916,0.008275
2120.8552,0.007522
2122.7189,0.007228
2124.5826,0.007276
2126.4462,0.007783
2128.3099,0.007451
2130.1736,0.006514
2132.0372,0.005859
2133.9009,0.005376
2135.7646,0.005650
2137.6282,0.006038
2139.4919,0.005298
2141.3556,0.004694
2143.2193,0.004851
2145.0829,0.003534
2146.9466,0.002268
2148.8103,0.002205
2150.6739,0.002326
2152.5376,0.001631
2154.4013,0.000424
2156.2649,-0.001393
2158.1286,-0.002702
2159.9923,-0.003138
2161.8559,-0.001062
2163.7196,0.000759
2165.5833,0.000645
2167.4470,0.001097
2169.3106,0.001032
2171.1743,0.000974
2173.0380,0.001764
2174.9016,0.001344
2176.7653,0.002148
2178.6290,0.003299
2180.4926,0.002541
2182.3563,0.001967
2184.2200,0.002883
2186.0836,0.003191
2187.9473,0.003978
2189.8110,0.004455
2191.6746,0.003475
2193.5383,0.002829
2195.4020,0.003395
2197.2657,0.004539
2199.1293,0.005063
2200.9930,0.004672
2202.8567,0.004838
2204.7203,0.005659
2206.5840,0.005924
2208.4477,0.005054
2210.3113,0.004932
2212.1750,0.005334
2214.0387,0.005762
2215.9023,0.006451
2217.7660,0.006684
2219.6297,0.005706
2221.4934,0.004779
2223.3570,0.005556
2225.2207,0.005831
2227.0844,0.005574
2228.9480,0.006566
2230.8117,0.007150
2232.6754,0.007625
2234.5390,0.007421
2236.4027,0.007133
2238.2664,0.007485
2240.1300,0.007513
2241.9937,0.007704
2243.8574,0.007891
2245.7210,0.007824
2247.5847,0.008061
2249.4484,0.008161
2251.3121,0.008182
2253.1757,0.008459
2255.0394,0.008673
2256.9031,0.008808
2258.7667,0.009069
2260.6304,0.009013
2262.4941,0.009151
2264.3577,0.009555
2266.2214,0.009883
2268.0851,0.009730
2269.9487,0.009877
2271.8124,0.009747
2273.6761,0.009899
2275.5397,0.010039
2277.4034,0.010125
2279.2671,0.010396
2281.1308,0.010791
2282.9944,0.010837
2284.8581,0.010769
2286.7218,0.011202
2288.5854,0.011544
2290.4491,0.011638
2292.3128,0.011631
2294.1764,0.011535
2296.0401,0.011564
2297.9038,0.011537
2299.7674,0.011653
2301.6311,0.011976
2303.4948,0.011949
2305.3585,0.011992
2307.2221,0.012227
2309.0858,0.012114
2310.9495,0.012051
2312.8131,0.012186
2314.6768,0.012272
2316.5405,0.012498
2318.4041,0.012533
2320.2678,0.012191
2322.1315,0.012691
2323.9951,0.012913
2325.8588,0.012803
2327.7225,0.012625
2329.5861,0.012502
2331.4498,0.012358
2333.3135,0.012084
2335.1772,0.012081
2337.0408,0.012175
2338.9045,0.012109
2340.7682,0.012136
2342.6318,0.012519
2344.4955,0.012683
2346.3592,0.012298
2348.2228,0.012009
2350.0865,0.012204
2351.9502,0.012146
2353.8138,0.011778
2355.6775,0.011496
2357.5412,0.011632
2359.4049,0.012015
2361.2685,0.011957
2363.1322,0.011899
2364.9959,0.011719
2366.8595,0.011661
2368.7232,0.012159
2370.5869,0.012646
2372.4505,0.012740
2374.3142,0.012537
2376.1779,0.012804
2378.0415,0.013149
2379.9052,0.013090
2381.7689,0.013051
2383.6325,0.013190
2385.4962,0.013046
2387.3599,0.013082
2389.2236,0.013019
2391.0872,0.012907
2392.9509,0.013230
2394.8146,0.013263
2396.6782,0.013334
2398.5419,0.013341
2400.4056,0.013455
2402.2692,0.013437
2404.1329,0.013450
2405.9966,0.013590
2407.8602,0.013634
2409.7239,0.013478
2411.5876,0.013433
2413.4512,0.013487
2415.3149,0.013236
2417.1786,0.013319
2419.0423,0.013888
2420.9059,0.014074
2422.7696,0.014011
2424.6333,0.013851
2426.4969,0.013829
2428.3606,0.013775
2430.2243,0.013789
2432.0879,0.014084
2433.9516,0.014337
2435.8153,0.014413
2437.6789,0.014188
2439.5426,0.014043
2441.4063,0.014113
2443.2700,0.014350
2445.1336,0.014321
2446.9973,0.014290
2448.8610,0.014514
2450.7246,0.014598
2452.5883,0.014247
2454.4520,0.014327
2456.3156,0.014544
2458.1793,0.014642
2460.0430,0.014570
2461.9066,0.014758
2463.7703,0.014774
2465.6340,0.014692
2467.4976,0.014930
2469.3613,0.015057
2471.2250,0.015153
2473.0887,0.014852
2474.9523,0.014947
2476.8160,0.015308
2478.6797,0.015458
2480.5433,0.015340
2482.4070,0.015227
2484.2707,0.015275
2486.1343,0.015456
2487.9980,0.015852
2489.8617,0.016058
2491.7253,0.015663
2493.5890,0.015315
2495.4527,0.015608
2497.3164,0.015941
2499.1800,0.016212
2501.0437,0.016169
2502.9074,0.016026
2504.7710,0.015970
2506.6347,0.015871
2508.4984,0.015997
2510.3620,0.016063
2512.2257,0.016143
2514.0894,0.016132
2515.9530,0.016078
2517.8167,0.016536
2519.6804,0.016788
2521.5440,0.016671
2523.4077,0.016763
2525.2714,0.016858
