Wavenumber,Intensity
650.4205,0.105178
652.2841,0.109402
654.1478,0.114804
656.0115,0.119842
657.8751,0.127440
659.7388,0.136331
661.6025,0.145738
663.4661,0.154188
665.3298,0.162596
667.1935,0.169742
669.0571,0.169235
670.9208,0.159194
672.7845,0.149998
674.6481,0.140767
676.5118,0.130987
678.3755,0.122840
680.2392,0.117514
682.1028,0.113507
683.9665,0.108570
685.8302,0.102954
687.6938,0.099585
689.5575,0.096264
691.4212,0.092082
693.2848,0.088685
695.1485,0.086733
697.0122,0.084510
698.8758,0.084198
700.7395,0.086091
702.6032,0.087049
704.4669,0.085133
706.3305,0.080711
708.1942,0.075900
710.0579,0.072760
711.9215,0.070144
713.7852,0.067200
715.6489,0.064539
717.5125,0.062678
719.3762,0.061609
721.2399,0.061111
723.1035,0.060558
724.9672,0.060016
726.8309,0.060381
728.6945,0.061240
730.5582,0.062921
732.4219,0.065001
734.2856,0.063853
736.1492,0.059951
738.0129,0.058081
739.8766,0.059491
741.7402,0.061477
743.6039,0.061231
745.4676,0.059034
747.3312,0.057253
749.1949,0.055896
751.0586,0.055098
752.9222,0.055318
754.7859,0.055632
756.6496,0.055917
758.5132,0.056740
760.3769,0.057758
762.2406,0.058990
764.1043,0.059528
765.9679,0.059137
767.8316,0.058579
769.6953,0.058290
771.5589,0.058442
773.4226,0.059326
775.2863,0.060488
777.1499,0.061288
779.0136,0.062359
780.8773,0.063962
782.7409,0.065627
784.6046,0.067469
786.4683,0.069121
788.3320,0.069129
790.1956,0.067855
792.0593,0.067436
793.9230,0.067843
795.7866,0.068370
797.6503,0.069627
799.5140,0.071633
801.3776,0.073727
803.2413,0.074018
805.1050,0.072246
806.9686,0.070631
808.8323,0.069739
810.6960,0.069343
812.5596,0.069072
814.4233,0.068963
816.2870,0.068871
818.1507,0.068921
820.0143,0.069049
821.8780,0.069174
823.7417,0.069010
825.6053,0.069172
827.4690,0.070235
829.3327,0.071077
831.1963,0.070669
833.0600,0.069386
834.9237,0.067888
836.7873,0.067515
838.6510,0.067947
840.5147,0.068525
842.3784,0.069408
844.2420,0.070745
846.1057,0.072350
847.9694,0.074230
849.8330,0.076783
851.6967,0.080141
853.5604,0.084495
855.4240,0.089249
857.2877,0.091384
859.1514,0.089190
861.0150,0.085254
862.8787,0.082580
864.7424,0.081067
866.6060,0.079738
868.4697,0.079009
870.3334,0.079477
872.1971,0.080293
874.0607,0.080990
875.9244,0.081910
877.7881,0.082910
879.6517,0.083890
881.5154,0.085127
883.3791,0.086377
885.2427,0.087478
887.1064,0.088621
888.9701,0.090227
890.8337,0.092154
892.6974,0.094309
894.5611,0.096352
896.4247,0.098332
898.2884,0.100883
900.1521,0.104337
902.0158,0.107910
903.8794,0.110630
905.7431,0.111887
907.6068,0.112357
909.4704,0.113340
911.3341,0.115129
913.1978,0.116870
915.0614,0.117059
916.9251,0.114888
918.7888,0.112164
920.6524,0.110944
922.5161,0.111439
924.3798,0.113024
926.2435,0.115098
928.1071,0.117300
929.9708,0.120067
931.8345,0.123687
933.6981,0.127744
935.5618,0.130627
937.4255,0.130889
939.2891,0.129556
941.1528,0.129027
943.0165,0.129841
944.8801,0.131167
946.7438,0.132639
948.6075,0.134653
950.4711,0.137231
952.3348,0.140122
954.1985,0.143216
956.0622,0.146118
957.9258,0.147903
959.7895,0.148806
961.6532,0.149884
963.5168,0.151797
965.3805,0.154282
967.2442,0.157269
969.1078,0.160679
970.9715,0.163980
972.8352,0.167022
974.6988,0.170577
976.5625,0.175288
978.4262,0.181515
980.2899,0.188927
982.1535,0.193355
984.0172,0.190837
985.8809,0.186291
987.7445,0.185131
989.6082,0.186738
991.4719,0.189505
993.3355,0.193060
995.1992,0.197196
997.0629,0.201887
998.9265,0.206501
1000.7902,0.210078
1002.6539,0.212852
1004.5175,0.216306
1006.3812,0.220500
1008.2449,0.223833
1010.1086,0.224538
1011.9722,0.222199
1013.8359,0.217335
1015.6996,0.210599
1017.5632,0.203112
1019.4269,0.196238
1021.2906,0.189974
1023.1542,0.184258
1025.0179,0.179160
1026.8816,0.174530
1028.7452,0.169634
1030.6089,0.163813
1032.4726,0.157509
1034.3362,0.152220
1036.1999,0.148067
1038.0636,0.144540
1039.9273,0.141555
1041.7909,0.139051
1043.6546,0.136930
1045.5183,0.134851
1047.3819,0.132150
1049.2456,0.128775
1051.1093,0.125191
1052.9729,0.122184
1054.8366,0.120164
1056.7003,0.118821
1058.5639,0.117830
1060.4276,0.117235
1062.2913,0.116841
1064.1550,0.116611
1066.0186,0.116541
1067.8823,0.116663
1069.7460,0.116935
1071.6096,0.117116
1073.4733,0.117021
1075.3370,0.116580
1077.2006,0.115912
1079.0643,0.115240
1080.9280,0.114648
1082.7916,0.114300
1084.6553,0.114057
1086.5190,0.113847
1088.3826,0.113845
1090.2463,0.114182
1092.1100,0.114814
1093.9737,0.115559
1095.8373,0.116296
1097.7010,0.117175
1099.5647,0.117961
1101.4283,0.118301
1103.2920,0.118017
1105.1557,0.117003
1107.0193,0.115285
1108.8830,0.112750
1110.7467,0.109198
1112.6103,0.105138
1114.4740,0.101294
1116.3377,0.097990
1118.2014,0.095298
1120.0650,0.093318
1121.9287,0.091915
1123.7924,0.090516
1125.6560,0.088620
1127.5197,0.086171
1129.3834,0.083532
1131.2470,0.081240
1133.1107,0.079460
1134.9744,0.078123
1136.8380,0.077072
1138.7017,0.076001
1140.5654,0.074964
1142.4290,0.073999
1144.2927,0.072672
1146.1564,0.070708
1148.0201,0.068690
1149.8837,0.067344
1151.7474,0.066547
1153.6111,0.066246
1155.4747,0.066292
1157.3384,0.065836
1159.2021,0.064192
1161.0657,0.061871
1162.9294,0.060030
1164.7931,0.059024
1166.6567,0.058506
1168.5204,0.058325
1170.3841,0.058350
1172.2477,0.058347
1174.1114,0.057942
1175.9751,0.057084
1177.8388,0.056316
1179.7024,0.055856
1181.5661,0.055836
1183.4298,0.056379
1185.2934,0.057306
1187.1571,0.058432
1189.0208,0.059318
1190.8844,0.059060
1192.7481,0.057524
1194.6118,0.055671
1196.4754,0.054483
1198.3391,0.054029
1200.2028,0.053918
1202.0665,0.053773
1203.9301,0.053341
1205.7938,0.052703
1207.6575,0.052036
1209.5211,0.051422
1211.3848,0.050791
1213.2485,0.049987
1215.1121,0.049141
1216.9758,0.048517
1218.8395,0.048021
1220.7031,0.047556
1222.5668,0.047205
1224.4305,0.046847
1226.2941,0.046219
1228.1578,0.045445
1230.0215,0.044851
1231.8852,0.044481
1233.7488,0.044195
1235.6125,0.043970
1237.4762,0.044026
1239.3398,0.044245
1241.2035,0.044007
1243.0672,0.043114
1244.9308,0.042139
1246.7945,0.041416
1248.6582,0.040859
1250.5218,0.040492
1252.3855,0.040310
1254.2492,0.040235
1256.1129,0.040212
1257.9765,0.040095
1259.8402,0.039881
1261.7039,0.039885
1263.5675,0.040114
1265.4312,0.040090
1267.2949,0.039537
1269.1585,0.038879
1271.0222,0.038656
1272.8859,0.038836
1274.7495,0.039260
1276.6132,0.039948
1278.4769,0.040977
1280.3405,0.042422
1282.2042,0.044250
1284.0679,0.046093
1285.9316,0.047118
1287.7952,0.046874
1289.6589,0.046249
1291.5226,0.045859
1293.3862,0.045551
1295.2499,0.045801
1297.1136,0.047054
1298.9772,0.049047
1300.8409,0.051622
1302.7046,0.054371
1304.5682,0.056526
1306.4319,0.057293
1308.2956,0.055970
1310.1592,0.053060
1312.0229,0.050432
1313.8866,0.049302
1315.7503,0.049191
1317.6139,0.049620
1319.4776,0.050666
1321.3413,0.051547
1323.2049,0.051902
1325.0686,0.052289
1326.9323,0.052826
1328.7959,0.053432
1330.6596,0.054012
1332.5233,0.054151
1334.3869,0.053638
1336.2506,0.053363
1338.1143,0.054201
1339.9780,0.054796
1341.8416,0.052965
1343.7053,0.049989
1345.5690,0.048384
1347.4326,0.048657
1349.2963,0.049703
1351.1600,0.050315
1353.0236,0.050221
1354.8873,0.050350
1356.7510,0.051318
1358.6146,0.052488
1360.4783,0.052890
1362.3420,0.052114
1364.2056,0.050808
1366.0693,0.050076
1367.9330,0.050361
1369.7967,0.051033
1371.6603,0.051626
1373.5240,0.053055
1375.3877,0.055255
1377.2513,0.056582
1379.1150,0.057744
1380.9787,0.058900
1382.8423,0.059747
1384.7060,0.060819
1386.5697,0.063015
1388.4333,0.066406
1390.2970,0.068178
1392.1607,0.069178
1394.0244,0.070510
1395.8880,0.071177
1397.7517,0.070351
1399.6154,0.069546
1401.4790,0.068702
1403.3427,0.067811
1405.2064,0.066946
1407.0700,0.064671
1408.9337,0.061725
1410.7974,0.059328
1412.6610,0.058028
1414.5247,0.057484
1416.3884,0.057671
1418.2520,0.059118
1420.1157,0.060815
1421.9794,0.059737
1423.8431,0.056893
1425.7067,0.052280
1427.5704,0.047659
1429.4341,0.044686
1431.2977,0.043154
1433.1614,0.042495
1435.0251,0.043040
1436.8887,0.045847
1438.7524,0.047652
1440.6161,0.047206
1442.4797,0.047354
1444.3434,0.047889
1446.2071,0.048893
1448.0707,0.050651
1449.9344,0.051897
1451.7981,0.051275
1453.6618,0.050008
1455.5254,0.049898
1457.3891,0.054285
1459.2528,0.057526
1461.1164,0.057482
1462.9801,0.057867
1464.8438,0.058284
1466.7074,0.056874
1468.5711,0.054611
1470.4348,0.053253
1472.2984,0.053254
1474.1621,0.053583
1476.0258,0.052722
1477.8895,0.052216
1479.7531,0.052313
1481.6168,0.053683
1483.4805,0.055229
1485.3441,0.056085
1487.2078,0.057178
1489.0715,0.058509
1490.9351,0.059500
1492.7988,0.059071
1494.6625,0.058803
1496.5261,0.060285
1498.3898,0.061557
1500.2535,0.060526
1502.1171,0.058093
1503.9808,0.055350
1505.8445,0.053548
1507.7082,0.053441
1509.5718,0.051916
1511.4355,0.050158
1513.2992,0.048969
1515.1628,0.048160
1517.0265,0.048357
1518.8902,0.048809
1520.7538,0.049747
1522.6175,0.052730
1524.4812,0.053483
1526.3448,0.054049
1528.2085,0.054108
1530.0722,0.052816
1531.9359,0.051617
1533.7995,0.051045
1535.6632,0.049811
1537.5269,0.048330
1539.3905,0.049081
1541.2542,0.052069
1543.1179,0.052489
1544.9815,0.052483
1546.8452,0.052028
1548.7089,0.051083
1550.5725,0.050694
1552.4362,0.049970
1554.2999,0.049327
1556.1635,0.049224
1558.0272,0.050470
1559.8909,0.056675
1561.7546,0.056480
1563.6182,0.055691
1565.4819,0.056767
1567.3456,0.058259
1569.2092,0.060596
1571.0729,0.063629
1572.9366,0.064205
1574.8002,0.065423
1576.6639,0.069163
1578.5276,0.071007
1580.3912,0.070671
1582.2549,0.071083
1584.1186,0.071581
1585.9822,0.072208
1587.8459,0.072822
1589.7096,0.073687
1591.5733,0.074710
1593.4369,0.075617
1595.3006,0.076085
1597.1643,0.075820
1599.0279,0.074797
1600.8916,0.073370
1602.7553,0.071547
1604.6189,0.069475
1606.4826,0.067604
1608.3463,0.066472
1610.2099,0.065791
1612.0736,0.065223
1613.9373,0.064806
1615.8010,0.065073
1617.6646,0.066330
1619.5283,0.065687
1621.3920,0.064528
1623.2556,0.063618
1625.1193,0.062112
1626.9830,0.059753
1628.8466,0.056642
1630.7103,0.052856
1632.5740,0.049295
1634.4376,0.046206
1636.3013,0.043940
1638.1650,0.042401
1640.0286,0.041354
1641.8923,0.040130
1643.7560,0.038642
1645.6197,0.036910
1647.4833,0.034908
1649.3470,0.033288
1651.2107,0.032201
1653.0743,0.032278
1654.9380,0.033090
1656.8017,0.032089
1658.6653,0.031524
1660.5290,0.030818
1662.3927,0.030232
1664.2563,0.029855
1666.1200,0.029020
1667.9837,0.028009
1669.8474,0.027198
1671.7110,0.026631
1673.5747,0.026279
1675.4384,0.026447
1677.3020,0.026779
1679.1657,0.026471
1681.0294,0.026589
1682.8930,0.026419
1684.7567,0.027978
1686.6204,0.029044
1688.4840,0.028403
1690.3477,0.027777
1692.2114,0.026897
1694.0750,0.025782
1695.9387,0.024702
1697.8024,0.023682
1699.6661,0.022496
1701.5297,0.021852
1703.3934,0.020542
1705.2571,0.019133
1707.1207,0.017668
1708.9844,0.016528
1710.8481,0.015577
1712.7117,0.014379
1714.5754,0.013319
1716.4391,0.012648
1718.3027,0.012925
1720.1664,0.013451
1722.0301,0.013044
1723.8937,0.012707
1725.7574,0.012396
1727.6211,0.011953
1729.4848,0.011243
1731.3484,0.010651
1733.2121,0.010202
1735.0758,0.010619
1736.9394,0.010572
1738.8031,0.010358
1740.6668,0.010558
1742.5304,0.010479
1744.3941,0.010431
1746.2578,0.010304
1748.1214,0.010493
1749.9851,0.011074
1751.8488,0.011836
1753.7125,0.012160
1755.5761,0.011982
1757.4398,0.012026
1759.3035,0.011846
1761.1671,0.011429
1763.0308,0.011074
1764.8945,0.010536
1766.7581,0.009945
1768.6218,0.009503
1770.4855,0.008926
1772.3491,0.008633
1774.2128,0.009066
1776.0765,0.009073
1777.9401,0.008909
1779.8038,0.008634
1781.6675,0.008762
1783.5312,0.008797
1785.3948,0.008868
1787.2585,0.008751
1789.1222,0.008600
1790.9858,0.008368
1792.8495,0.008638
1794.7132,0.008867
1796.5768,0.008828
1798.4405,0.008908
1800.3042,0.008797
1802.1678,0.008645
1804.0315,0.008772
1805.8952,0.008882
1807.7589,0.008914
1809.6225,0.008806
1811.4862,0.008818
1813.3499,0.008768
1815.2135,0.008626
1817.0772,0.008498
1818.9409,0.008669
1820.8045,0.008882
1822.6682,0.008971
1824.5319,0.008877
1826.3955,0.008773
1828.2592,0.008324
1830.1229,0.008226
1831.9865,0.008322
1833.8502,0.008406
1835.7139,0.008563
1837.5776,0.008615
1839.4412,0.008615
1841.3049,0.008414
1843.1686,0.008123
1845.0322,0.007981
1846.8959,0.008149
1848.7596,0.008279
1850.6232,0.008167
1852.4869,0.008257
1854.3506,0.008464
1856.2142,0.008603
1858.0779,0.008634
1859.9416,0.008421
1861.8052,0.008396
1863.6689,0.008297
1865.5326,0.008187
1867.3963,0.008279
1869.2599,0.008130
1871.1236,0.007819
1872.9873,0.007854
1874.8509,0.008043
1876.7146,0.008053
1878.5783,0.008127
1880.4419,0.008198
1882.3056,0.008058
1884.1693,0.007971
1886.0329,0.008297
1887.8966,0.008179
1889.7603,0.007455
1891.6240,0.007425
1893.4876,0.007860
1895.3513,0.007918
1897.2150,0.007908
1899.0786,0.008204
1900.9423,0.008357
1902.8060,0.008117
1904.6696,0.007795
1906.5333,0.007667
1908.3970,0.007732
1910.2606,0.008000
1912.1243,0.008114
1913.9880,0.007921
1915.8516,0.007960
1917.7153,0.007985
1919.5790,0.007333
1921.4427,0.007177
1923.3063,0.007412
1925.1700,0.007240
1927.0337,0.007288
1928.8973,0.007413
1930.7610,0.007478
1932.6247,0.007602
1934.4883,0.007075
1936.3520,0.006601
1938.2157,0.006619
1940.0793,0.006481
1941.9430,0.006508
1943.8067,0.006044
1945.6704,0.005439
1947.5340,0.005906
1949.3977,0.006413
1951.2614,0.006247
1953.1250,0.005621
1954.9887,0.004818
1956.8524,0.003732
1958.7160,0.002907
1960.5797,0.003181
1962.4434,0.003964
1964.3070,0.004207
1966.1707,0.003774
1968.0344,0.002893
1969.8980,0.001596
1971.7617,0.001425
1973.6254,0.001464
1975.4891,0.001662
1977.3527,0.002345
1979.2164,0.003168
1981.0801,0.003006
1982.9437,0.002912
1984.8074,0.004158
1986.6711,0.004518
1988.5347,0.003342
1990.3984,0.003291
1992.2621,0.003682
1994.1257,0.003565
1995.9894,0.004107
1997.8531,0.003915
1999.7167,0.003398
2001.5804,0.003836
2003.4441,0.003204
2005.3078,0.001770
2007.1714,0.001447
2009.0351,0.002207
2010.8988,0.001567
2012.7624,0.000718
2014.6261,0.000659
2016.4898,0.000800
2018.3534,0.000439
2020.2171,-0.000215
2022.0808,-0.000726
2023.9444,-0.001078
2025.8081,-0.000249
2027.6718,0.000579
2029.5355,-0.000332
2031.3991,-0.001458
2033.2628,-0.001544
2035.1265,-0.001028
2036.9901,0.001010
2038.8538,0.002353
2040.7175,0.002479
2042.5811,0.002754
2044.4448,0.003006
2046.3085,0.002915
2048.1721,0.002888
2050.0358,0.004294
2051.8995,0.004686
2053.7631,0.004685
2055.6268,0.005292
2057.4905,0.005927
2059.3542,0.006084
2061.2178,0.006193
2063.0815,0.006096
2064.9452,0.006502
2066.8088,0.006522
2068.6725,0.006890
2070.5362,0.007910
2072.3998,0.007699
2074.2635,0.007237
2076.1272,0.007297
2077.9908,0.007657
2079.8545,0.008177
2081.7182,0.007993
2083.5819,0.008110
2085.4455,0.008765
2087.3092,0.009094
2089.1729,0.008972
2091.0365,0.008685
2092.9002,0.008287
2094.7639,0.007968
2096.6275,0.008208
2098.4912,0.008332
2100.3549,0.008613
2102.2185,0.009086
2104.0822,0.008775
2105.9459,0.008651
2107.8095,0.008875
2109.6732,0.008599
2111.5369,0.008628
2113.4006,0.008616
2115.2642,0.008428
2117.1279,0.008428
2118.9916,0.008304
2120.8552,0.008059
2122.7189,0.008076
2124.5826,0.008421
2126.4462,0.008482
2128.3099,0.007656
2130.1736,0.006266
2132.0372,0.005771
2133.9009,0.005804
2135.7646,0.005984
2137.6282,0.006226
2139.4919,0.005517
2141.3556,0.004515
2143.2193,0.004589
2145.0829,0.005073
2146.9466,0.004887
2148.8103,0.003775
2150.6739,0.003320
2152.5376,0.001915
2154.4013,-0.000582
2156.2649,-0.001125
2158.1286,-0.000074
2159.9923,-0.000807
2161.8559,-0.001224
2163.7196,-0.000402
2165.5833,0.000996
2167.4470,0.000730
2169.3106,0.000460
2171.1743,0.000610
2173.0380,0.000676
2174.9016,0.001608
2176.7653,0.002861
2178.6290,0.003345
2180.4926,0.002621
2182.3563,0.002446
2184.2200,0.002756
2186.0836,0.002181
2187.9473,0.002944
2189.8110,0.003112
2191.6746,0.003585
2193.5383,0.004285
2195.4020,0.003985
2197.2657,0.003953
2199.1293,0.004837
2200.9930,0.004294
2202.8567,0.004992
2204.7203,0.005492
2206.5840,0.005198
2208.4477,0.005554
2210.3113,0.005711
2212.1750,0.004568
2214.0387,0.004137
2215.9023,0.005140
2217.7660,0.005863
2219.6297,0.005683
2221.4934,0.005722
2223.3570,0.006205
2225.2207,0.006419
2227.0844,0.006332
2228.9480,0.006510
2230.8117,0.006963
2232.6754,0.007852
2234.5390,0.007766
2236.4027,0.006625
2238.2664,0.006406
2240.1300,0.006496
2241.9937,0.007601
2243.8574,0.008933
2245.7210,0.008399
2247.5847,0.007259
2249.4484,0.007784
2251.3121,0.008636
2253.1757,0.009013
2255.0394,0.009050
2256.9031,0.008921
2258.7667,0.008898
2260.6304,0.008828
2262.4941,0.009133
2264.3577,0.009097
2266.2214,0.008923
2268.0851,0.009284
2269.9487,0.009824
2271.8124,0.009815
2273.6761,0.009729
2275.5397,0.010088
2277.4034,0.010654
2279.2671,0.011034
2281.1308,0.011094
2282.9944,0.011068
2284.8581,0.011077
2286.7218,0.011458
2288.5854,0.012183
2290.4491,0.012450
2292.3128,0.012001
2294.1764,0.011762
2296.0401,0.011845
2297.9038,0.012077
2299.7674,0.012196
2301.6311,0.012201
2303.4948,0.012496
2305.3585,0.012904
2307.2221,0.013101
2309.0858,0.012881
2310.9495,0.012685
2312.8131,0.012822
2314.6768,0.012811
2316.5405,0.012971
2318.4041,0.013345
2320.2678,0.013839
2322.1315,0.014096
2323.9951,0.014094
2325.8588,0.014006
2327.7225,0.013411
2329.5861,0.013060
2331.4498,0.013344
2333.3135,0.013452
2335.1772,0.013475
2337.0408,0.013607
2338.9045,0.013765
2340.7682,0.013839
2342.6318,0.013914
2344.4955,0.014077
2346.3592,0.013968
2348.2228,0.013416
2350.0865,0.013069
2351.9502,0.013540
2353.8138,0.013936
2355.6775,0.013719
2357.5412,0.014001
2359.4049,0.014190
2361.2685,0.013954
2363.1322,0.014135
2364.9959,0.013756
2366.8595,0.013438
2368.7232,0.013867
2370.5869,0.014326
2372.4505,0.014281
2374.3142,0.013919
2376.1779,0.013915
2378.0415,0.013975
2379.9052,0.013873
2381.7689,0.013463
2383.6325,0.013330
2385.4962,0.013428
2387.3599,0.013373
2389.2236,0.013380
2391.0872,0.013451
2392.9509,0.013517
2394.8146,0.013585
2396.6782,0.013517
2398.5419,0.013484
2400.4056,0.013511
2402.2692,0.013495
2404.1329,0.013550
2405.9966,0.013838
2407.8602,0.013764
2409.7239,0.013968
2411.5876,0.014366
2413.4512,0.014491
2415.3149,0.014432
2417.1786,0.014213
2419.0423,0.014052
2420.9059,0.014294
2422.7696,0.014324
2424.6333,0.014345
2426.4969,0.014381
2428.3606,0.014656
2430.2243,0.015072
2432.0879,0.015189
2433.9516,0.014946
2435.8153,0.014554
2437.6789,0.014594
2439.5426,0.014956
2441.4063,0.015004
2443.2700,0.014854
2445.1336,0.015081
2446.9973,0.015286
2448.8610,0.014975
2450.7246,0.014928
2452.5883,0.015038
2454.4520,0.015274
2456.3156,0.015607
2458.1793,0.015631
2460.0430,0.015589
2461.9066,0.015533
2463.7703,0.015781
2465.6340,0.015959
2467.4976,0.015928
2469.3613,0.016122
2471.2250,0.016523
2473.0887,0.016573
2474.9523,0.016316
2476.8160,0.016545
2478.6797,0.016573
2480.5433,0.016262
2482.4070,0.016418
2484.2707,0.016905
2486.1343,0.016703
2487.9980,0.016818
2489.8617,0.017450
2491.7253,0.017521
2493.5890,0.017400
2495.4527,0.017527
2497.3164,0.017557
2499.1800,0.017655
2501.0437,0.017727
2502.9074,0.017434
2504.7710,0.017408
2506.6347,0.017553
2508.4984,0.017422
2510.3620,0.017323
2512.2257,0.017427
2514.0894,0.017996
2515.9530,0.018347
2517.8167,0.018537
2519.6804,0.018605
2521.5440,0.018635
2523.4077,0.018611
2525.2714,0.018792
