Wavenumber,Intensity
650.4205,0.102570
652.2841,0.104484
654.1478,0.102562
656.0115,0.099889
657.8751,0.098926
659.7388,0.096376
661.6025,0.095465
663.4661,0.095334
665.3298,0.094552
667.1935,0.094081
669.0571,0.096751
670.9208,0.096250
672.7845,0.094725
674.6481,0.093775
676.5118,0.094483
678.3755,0.094455
680.2392,0.094243
682.1028,0.093536
683.9665,0.093489
685.8302,0.093329
687.6938,0.092859
689.5575,0.092706
691.4212,0.093083
693.2848,0.092702
695.1485,0.092770
697.0122,0.094059
698.8758,0.095815
700.7395,0.096050
702.6032,0.096155
704.4669,0.096182
706.3305,0.095809
708.1942,0.093478
710.0579,0.090405
711.9215,0.088311
713.7852,0.086427
715.6489,0.084360
717.5125,0.082409
719.3762,0.080109
721.2399,0.078123
723.1035,0.076798
724.9672,0.075666
726.8309,0.074002
728.6945,0.072700
730.5582,0.071721
732.4219,0.070986
734.2856,0.070955
736.1492,0.070985
738.0129,0.071129
739.8766,0.071360
741.7402,0.071688
743.6039,0.072840
745.4676,0.073934
747.3312,0.075138
749.1949,0.076242
751.0586,0.076956
752.9222,0.077951
754.7859,0.078819
756.6496,0.078635
758.5132,0.078363
760.3769,0.077803
762.2406,0.077407
764.1043,0.076553
765.9679,0.074539
767.8316,0.072851
769.6953,0.071727
771.5589,0.070669
773.4226,0.069542
775.2863,0.068139
777.1499,0.067113
779.0136,0.066623
780.8773,0.066071
782.7409,0.065636
784.6046,0.065476
786.4683,0.065312
788.3320,0.065386
790.1956,0.065268
792.0593,0.064718
793.9230,0.064147
795.7866,0.063668
797.6503,0.063332
799.5140,0.063347
801.3776,0.063239
803.2413,0.063049
805.1050,0.063005
806.9686,0.062950
808.8323,0.062603
810.6960,0.062630
812.5596,0.062734
814.4233,0.062088
816.2870,0.061460
818.1507,0.061658
820.0143,0.061953
821.8780,0.062166
823.7417,0.062455
825.6053,0.063390
827.4690,0.064667
829.3327,0.065934
831.1963,0.066471
833.0600,0.066133
834.9237,0.065733
836.7873,0.066093
838.6510,0.066810
840.5147,0.067397
842.3784,0.067755
844.2420,0.067740
846.1057,0.067556
847.9694,0.067592
849.8330,0.067536
851.6967,0.067267
853.5604,0.067048
855.4240,0.066812
857.2877,0.066470
859.1514,0.066207
861.0150,0.065515
862.8787,0.064460
864.7424,0.063566
866.6060,0.062886
868.4697,0.062136
870.3334,0.061481
872.1971,0.060980
874.0607,0.060799
875.9244,0.060931
877.7881,0.061185
879.6517,0.061755
881.5154,0.062934
883.3791,0.064369
885.2427,0.065677
887.1064,0.067008
888.9701,0.068464
890.8337,0.069739
892.6974,0.070928
894.5611,0.071955
896.4247,0.072914
898.2884,0.073851
900.1521,0.074801
902.0158,0.075961
903.8794,0.077319
905.7431,0.078783
907.6068,0.080317
909.4704,0.081979
911.3341,0.083933
913.1978,0.086171
915.0614,0.088031
916.9251,0.088160
918.7888,0.087015
920.6524,0.086140
922.5161,0.085868
924.3798,0.086006
926.2435,0.086238
928.1071,0.086246
929.9708,0.086190
931.8345,0.085989
933.6981,0.085653
935.5618,0.085251
937.4255,0.084684
939.2891,0.083992
941.1528,0.083304
943.0165,0.082651
944.8801,0.082518
946.7438,0.083134
948.6075,0.084374
950.4711,0.086220
952.3348,0.088762
954.1985,0.091737
956.0622,0.094854
957.9258,0.098055
959.7895,0.101360
961.6532,0.104784
963.5168,0.108481
965.3805,0.112549
967.2442,0.116972
969.1078,0.121550
970.9715,0.126487
972.8352,0.131722
974.6988,0.137496
976.5625,0.144042
978.4262,0.151340
980.2899,0.159044
982.1535,0.164191
984.0172,0.163452
985.8809,0.160253
987.7445,0.158970
989.6082,0.159217
991.4719,0.159419
993.3355,0.159150
995.1992,0.158453
997.0629,0.157583
998.9265,0.156602
1000.7902,0.155526
1002.6539,0.154488
1004.5175,0.153859
1006.3812,0.153735
1008.2449,0.153996
1010.1086,0.154348
1011.9722,0.154589
1013.8359,0.154301
1015.6996,0.153379
1017.5632,0.151864
1019.4269,0.149843
1021.2906,0.147377
1023.1542,0.144596
1025.0179,0.141470
1026.8816,0.138082
1028.7452,0.134784
1030.6089,0.131680
1032.4726,0.128535
1034.3362,0.125579
1036.1999,0.122850
1038.0636,0.120161
1039.9273,0.117487
1041.7909,0.114886
1043.6546,0.112342
1045.5183,0.109918
1047.3819,0.107471
1049.2456,0.104763
1051.1093,0.101474
1052.9729,0.097677
1054.8366,0.093788
1056.7003,0.090302
1058.5639,0.087232
1060.4276,0.084467
1062.2913,0.082282
1064.1550,0.081097
1066.0186,0.081211
1067.8823,0.082796
1069.7460,0.085842
1071.6096,0.089618
1073.4733,0.092868
1075.3370,0.094760
1077.2006,0.094888
1079.0643,0.093260
1080.9280,0.090354
1082.7916,0.086961
1084.6553,0.083390
1086.5190,0.079895
1088.3826,0.077014
1090.2463,0.075074
1092.1100,0.073990
1093.9737,0.073758
1095.8373,0.074265
1097.7010,0.075106
1099.5647,0.076025
1101.4283,0.076914
1103.2920,0.077485
1105.1557,0.077617
1107.0193,0.077259
1108.8830,0.075950
1110.7467,0.073846
1112.6103,0.071520
1114.4740,0.069165
1116.3377,0.066953
1118.2014,0.065072
1120.0650,0.063608
1121.9287,0.062497
1123.7924,0.061657
1125.6560,0.060913
1127.5197,0.060256
1129.3834,0.059934
1131.2470,0.059980
1133.1107,0.060334
1134.9744,0.061243
1136.8380,0.062681
1138.7017,0.064401
1140.5654,0.066257
1142.4290,0.067978
1144.2927,0.069223
1146.1564,0.069811
1148.0201,0.069652
1149.8837,0.068699
1151.7474,0.067023
1153.6111,0.064706
1155.4747,0.061680
1157.3384,0.058091
1159.2021,0.054114
1161.0657,0.049853
1162.9294,0.045679
1164.7931,0.041883
1166.6567,0.038468
1168.5204,0.035616
1170.3841,0.033437
1172.2477,0.031739
1174.1114,0.030293
1175.9751,0.028857
1177.8388,0.027522
1179.7024,0.026679
1181.5661,0.026398
1183.4298,0.026511
1185.2934,0.026945
1187.1571,0.027587
1189.0208,0.028319
1190.8844,0.029053
1192.7481,0.029824
1194.6118,0.030586
1196.4754,0.031233
1198.3391,0.031860
1200.2028,0.032366
1202.0665,0.032739
1203.9301,0.033051
1205.7938,0.033106
1207.6575,0.033012
1209.5211,0.033014
1211.3848,0.033133
1213.2485,0.033312
1215.1121,0.033492
1216.9758,0.033810
1218.8395,0.034370
1220.7031,0.034956
1222.5668,0.035516
1224.4305,0.036152
1226.2941,0.036798
1228.1578,0.037334
1230.0215,0.037713
1231.8852,0.038040
1233.7488,0.038321
1235.6125,0.038535
1237.4762,0.038786
1239.3398,0.039034
1241.2035,0.039197
1243.0672,0.039300
1244.9308,0.039330
1246.7945,0.039397
1248.6582,0.039549
1250.5218,0.039732
1252.3855,0.039861
1254.2492,0.039912
1256.1129,0.040008
1257.9765,0.040134
1259.8402,0.040275
1261.7039,0.040370
1263.5675,0.040440
1265.4312,0.040594
1267.2949,0.040657
1269.1585,0.040618
1271.0222,0.040725
1272.8859,0.040870
1274.7495,0.040948
1276.6132,0.041119
1278.4769,0.041369
1280.3405,0.041780
1282.2042,0.042296
1284.0679,0.042794
1285.9316,0.043412
1287.7952,0.044138
1289.6589,0.044754
1291.5226,0.045368
1293.3862,0.046229
1295.2499,0.047215
1297.1136,0.048209
1298.9772,0.049324
1300.8409,0.050650
1302.7046,0.052017
1304.5682,0.053044
1306.4319,0.053229
1308.2956,0.052138
1310.1592,0.049831
1312.0229,0.047310
1313.8866,0.045722
1315.7503,0.045365
1317.6139,0.045795
1319.4776,0.046556
1321.3413,0.047301
1323.2049,0.048034
1325.0686,0.048828
1326.9323,0.049570
1328.7959,0.050242
1330.6596,0.050777
1332.5233,0.051095
1334.3869,0.051217
1336.2506,0.051257
1338.1143,0.051534
1339.9780,0.052031
1341.8416,0.052056
1343.7053,0.051801
1345.5690,0.051799
1347.4326,0.052000
1349.2963,0.052253
1351.1600,0.052452
1353.0236,0.052705
1354.8873,0.053046
1356.7510,0.053265
1358.6146,0.053354
1360.4783,0.053739
1362.3420,0.054519
1364.2056,0.054757
1366.0693,0.054397
1367.9330,0.054370
1369.7967,0.054439
1371.6603,0.054343
1373.5240,0.054693
1375.3877,0.055045
1377.2513,0.054813
1379.1150,0.054842
1380.9787,0.055185
1382.8423,0.055472
1384.7060,0.055878
1386.5697,0.056909
1388.4333,0.058084
1390.2970,0.058368
1392.1607,0.058598
1394.0244,0.059143
1395.8880,0.059103
1397.7517,0.058464
1399.6154,0.057702
1401.4790,0.056479
1403.3427,0.055513
1405.2064,0.054499
1407.0700,0.052320
1408.9337,0.049598
1410.7974,0.047060
1412.6610,0.045113
1414.5247,0.043888
1416.3884,0.043467
1418.2520,0.044374
1420.1157,0.045637
1421.9794,0.045497
1423.8431,0.045046
1425.7067,0.043592
1427.5704,0.041687
1429.4341,0.040503
1431.2977,0.039556
1433.1614,0.038703
1435.0251,0.038621
1436.8887,0.039497
1438.7524,0.039547
1440.6161,0.039076
1442.4797,0.039007
1444.3434,0.038948
1446.2071,0.039068
1448.0707,0.039269
1449.9344,0.038854
1451.7981,0.037936
1453.6618,0.036982
1455.5254,0.036709
1457.3891,0.037890
1459.2528,0.037579
1461.1164,0.036182
1462.9801,0.035484
1464.8438,0.035205
1466.7074,0.034217
1468.5711,0.032699
1470.4348,0.031626
1472.2984,0.031350
1474.1621,0.031132
1476.0258,0.030441
1477.8895,0.029619
1479.7531,0.028972
1481.6168,0.028632
1483.4805,0.028162
1485.3441,0.027663
1487.2078,0.027539
1489.0715,0.027929
1490.9351,0.028108
1492.7988,0.027535
1494.6625,0.027273
1496.5261,0.027858
1498.3898,0.028446
1500.2535,0.028232
1502.1171,0.027493
1503.9808,0.026983
1505.8445,0.027757
1507.7082,0.029768
1509.5718,0.029259
1511.4355,0.028646
1513.2992,0.028390
1515.1628,0.028339
1517.0265,0.028585
1518.8902,0.028521
1520.7538,0.028987
1522.6175,0.029924
1524.4812,0.029835
1526.3448,0.030078
1528.2085,0.030194
1530.0722,0.029904
1531.9359,0.030133
1533.7995,0.030756
1535.6632,0.030250
1537.5269,0.029796
1539.3905,0.031008
1541.2542,0.032900
1543.1179,0.032696
1544.9815,0.032593
1546.8452,0.032522
1548.7089,0.032686
1550.5725,0.033171
1552.4362,0.033238
1554.2999,0.033132
1556.1635,0.033271
1558.0272,0.034897
1559.8909,0.038358
1561.7546,0.036788
1563.6182,0.035894
1565.4819,0.036154
1567.3456,0.036729
1569.2092,0.037804
1571.0729,0.038481
1572.9366,0.038068
1574.8002,0.038771
1576.6639,0.040648
1578.5276,0.040914
1580.3912,0.040717
1582.2549,0.041126
1584.1186,0.041652
1585.9822,0.042321
1587.8459,0.042794
1589.7096,0.043044
1591.5733,0.043249
1593.4369,0.043374
1595.3006,0.043531
1597.1643,0.043776
1599.0279,0.043766
1600.8916,0.043624
1602.7553,0.043474
1604.6189,0.043213
1606.4826,0.043041
1608.3463,0.043194
1610.2099,0.043122
1612.0736,0.042690
1613.9373,0.042582
1615.8010,0.043129
1617.6646,0.042967
1619.5283,0.041487
1621.3920,0.040786
1623.2556,0.040718
1625.1193,0.039995
1626.9830,0.038999
1628.8466,0.037867
1630.7103,0.036114
1632.5740,0.034661
1634.4376,0.034154
1636.3013,0.034185
1638.1650,0.032870
1640.0286,0.031729
1641.8923,0.031000
1643.7560,0.030624
1645.6197,0.031102
1647.4833,0.031889
1649.3470,0.030932
1651.2107,0.030710
1653.0743,0.033205
1654.9380,0.034035
1656.8017,0.032290
1658.6653,0.031822
1660.5290,0.031770
1662.3927,0.031962
1664.2563,0.031606
1666.1200,0.030670
1667.9837,0.030385
1669.8474,0.030608
1671.7110,0.030100
1673.5747,0.029786
1675.4384,0.030270
1677.3020,0.030286
1679.1657,0.029855
1681.0294,0.030043
1682.8930,0.030971
1684.7567,0.032841
1686.6204,0.032694
1688.4840,0.032063
1690.3477,0.031718
1692.2114,0.030923
1694.0750,0.030345
1695.9387,0.030253
1697.8024,0.029730
1699.6661,0.029404
1701.5297,0.028807
1703.3934,0.027133
1705.2571,0.026104
1707.1207,0.024911
1708.9844,0.023515
1710.8481,0.022396
1712.7117,0.021515
1714.5754,0.021095
1716.4391,0.021403
1718.3027,0.021900
1720.1664,0.021312
1722.0301,0.020713
1723.8937,0.020424
1725.7574,0.019898
1727.6211,0.019333
1729.4848,0.018994
1731.3484,0.018853
1733.2121,0.019340
1735.0758,0.019842
1736.9394,0.018798
1738.8031,0.018276
1740.6668,0.018479
1742.5304,0.018465
1744.3941,0.018364
1746.2578,0.018232
1748.1214,0.018446
1749.9851,0.018694
1751.8488,0.018654
1753.7125,0.018343
1755.5761,0.018213
1757.4398,0.018367
1759.3035,0.018159
1761.1671,0.018156
1763.0308,0.018391
1764.8945,0.017943
1766.7581,0.017535
1768.6218,0.017442
1770.4855,0.017670
1772.3491,0.018329
1774.2128,0.018543
1776.0765,0.018173
1777.9401,0.018002
1779.8038,0.018080
1781.6675,0.018237
1783.5312,0.018149
1785.3948,0.018176
1787.2585,0.017981
1789.1222,0.017735
1790.9858,0.017956
1792.8495,0.018518
1794.7132,0.018345
1796.5768,0.017976
1798.4405,0.018001
1800.3042,0.018218
1802.1678,0.018308
1804.0315,0.018217
1805.8952,0.018081
1807.7589,0.018075
1809.6225,0.018253
1811.4862,0.018344
1813.3499,0.018056
1815.2135,0.017764
1817.0772,0.017762
1818.9409,0.017797
1820.8045,0.017810
1822.6682,0.017870
1824.5319,0.018080
1826.3955,0.018174
1828.2592,0.018091
1830.1229,0.018306
1831.9865,0.018212
1833.8502,0.017800
1835.7139,0.017618
1837.5776,0.017688
1839.4412,0.017674
1841.3049,0.017550
1843.1686,0.017884
1845.0322,0.018412
1846.8959,0.017997
1848.7596,0.017656
1850.6232,0.017719
1852.4869,0.018064
1854.3506,0.018372
1856.2142,0.018228
1858.0779,0.018034
1859.9416,0.017977
1861.8052,0.017846
1863.6689,0.017570
1865.5326,0.017485
1867.3963,0.017767
1869.2599,0.017971
1871.1236,0.017734
1872.9873,0.017766
1874.8509,0.017904
1876.7146,0.018025
1878.5783,0.018077
1880.4419,0.017900
1882.3056,0.017599
1884.1693,0.017967
1886.0329,0.018199
1887.8966,0.018062
1889.7603,0.017942
1891.6240,0.017523
1893.4876,0.017308
1895.3513,0.017578
1897.2150,0.017454
1899.0786,0.017232
1900.9423,0.017377
1902.8060,0.017403
1904.6696,0.017372
1906.5333,0.017518
1908.3970,0.017404
1910.2606,0.017354
1912.1243,0.017482
1913.9880,0.017113
1915.8516,0.016821
1917.7153,0.017104
1919.5790,0.017075
1921.4427,0.016957
1923.3063,0.017394
1925.1700,0.017127
1927.0337,0.016408
1928.8973,0.016135
1930.7610,0.016501
1932.6247,0.016395
1934.4883,0.016705
1936.3520,0.017201
1938.2157,0.016480
1940.0793,0.016269
1941.9430,0.016700
1943.8067,0.016368
1945.6704,0.015298
1947.5340,0.014576
1949.3977,0.014419
1951.2614,0.014432
1953.1250,0.014538
1954.9887,0.014034
1956.8524,0.013554
1958.7160,0.013596
1960.5797,0.012738
1962.4434,0.011656
1964.3070,0.011639
1966.1707,0.011648
1968.0344,0.010989
1969.8980,0.010346
1971.7617,0.010759
1973.6254,0.010091
1975.4891,0.010014
1977.3527,0.011005
1979.2164,0.012037
1981.0801,0.012749
1982.9437,0.012700
1984.8074,0.012549
1986.6711,0.012414
1988.5347,0.012137
1990.3984,0.012100
1992.2621,0.012002
1994.1257,0.012414
1995.9894,0.013161
1997.8531,0.013341
1999.7167,0.012966
2001.5804,0.011908
2003.4441,0.010854
2005.3078,0.011354
2007.1714,0.010630
2009.0351,0.009842
2010.8988,0.011449
2012.7624,0.011540
2014.6261,0.010377
2016.4898,0.010643
2018.3534,0.010012
2020.2171,0.009388
2022.0808,0.010468
2023.9444,0.010628
2025.8081,0.009866
2027.6718,0.009719
2029.5355,0.009656
2031.3991,0.008918
2033.2628,0.009443
2035.1265,0.011426
2036.9901,0.011253
2038.8538,0.010233
2040.7175,0.011087
2042.5811,0.012842
2044.4448,0.013511
2046.3085,0.013556
2048.1721,0.014316
2050.0358,0.014602
2051.8995,0.014785
2053.7631,0.015067
2055.6268,0.015004
2057.4905,0.015054
2059.3542,0.015629
2061.2178,0.016145
2063.0815,0.015669
2064.9452,0.015726
2066.8088,0.016199
2068.6725,0.016471
2070.5362,0.016729
2072.3998,0.017116
2074.2635,0.017596
2076.1272,0.017721
2077.9908,0.017252
2079.8545,0.016698
2081.7182,0.017122
2083.5819,0.018066
2085.4455,0.018133
2087.3092,0.018291
2089.1729,0.017910
2091.0365,0.017678
2092.9002,0.017786
2094.7639,0.017480
2096.6275,0.017874
2098.4912,0.018698
2100.3549,0.018863
2102.2185,0.018483
2104.0822,0.017929
2105.9459,0.018084
2107.8095,0.018485
2109.6732,0.018349
2111.5369,0.018333
2113.4006,0.018079
2115.2642,0.017938
2117.1279,0.018121
2118.9916,0.018478
2120.8552,0.018309
2122.7189,0.017956
2124.5826,0.018190
2126.4462,0.018050
2128.3099,0.017760
2130.1736,0.017427
2132.0372,0.017039
2133.9009,0.015940
2135.7646,0.015919
2137.6282,0.016647
2139.4919,0.016306
2141.3556,0.016199
2143.2193,0.016260
2145.0829,0.015091
2146.9466,0.013901
2148.8103,0.013509
2150.6739,0.012871
2152.5376,0.011919
2154.4013,0.011500
2156.2649,0.009422
2158.1286,0.008018
2159.9923,0.010113
2161.8559,0.011912
2163.7196,0.012319
2165.5833,0.012794
2167.4470,0.011850
2169.3106,0.011981
2171.1743,0.012407
2173.0380,0.012706
2174.9016,0.013360
2176.7653,0.012463
2178.6290,0.013484
2180.4926,0.014969
2182.3563,0.014873
2184.2200,0.014978
2186.0836,0.015734
2187.9473,0.015595
2189.8110,0.014855
2191.6746,0.014996
2193.5383,0.014618
2195.4020,0.014255
2197.2657,0.015369
2199.1293,0.016738
2200.9930,0.016010
2202.8567,0.015046
2204.7203,0.015665
2206.5840,0.016372
2208.4477,0.016275
2210.3113,0.015902
2212.1750,0.015559
2214.0387,0.015437
2215.9023,0.016055
2217.7660,0.016961
2219.6297,0.017218
2221.4934,0.017170
2223.3570,0.016810
2225.2207,0.017299
2227.0844,0.017332
2228.9480,0.017344
2230.8117,0.017954
2232.6754,0.017750
2234.5390,0.017784
2236.4027,0.017261
2238.2664,0.017207
2240.1300,0.018265
2241.9937,0.018594
2243.8574,0.019051
2245.7210,0.019002
2247.5847,0.018627
2249.4484,0.019032
2251.3121,0.018968
2253.1757,0.019197
2255.0394,0.019987
2256.9031,0.020121
2258.7667,0.019606
2260.6304,0.018897
2262.4941,0.018862
2264.3577,0.019372
2266.2214,0.019771
2268.0851,0.020342
2269.9487,0.020348
2271.8124,0.020410
2273.6761,0.020565
2275.5397,0.020465
2277.4034,0.020600
2279.2671,0.020929
2281.1308,0.021371
2282.9944,0.021703
2284.8581,0.021745
2286.7218,0.021650
2288.5854,0.021580
2290.4491,0.021800
2292.3128,0.022157
2294.1764,0.022012
2296.0401,0.021810
2297.9038,0.021990
2299.7674,0.021955
2301.6311,0.021776
2303.4948,0.021836
2305.3585,0.021981
2307.2221,0.021959
2309.0858,0.022062
2310.9495,0.022111
2312.8131,0.022243
2314.6768,0.022342
2316.5405,0.022490
2318.4041,0.022542
2320.2678,0.022815
2322.1315,0.023090
2323.9951,0.023187
2325.8588,0.022810
2327.7225,0.022193
2329.5861,0.022024
2331.4498,0.022299
2333.3135,0.022442
2335.1772,0.022276
2337.0408,0.022479
2338.9045,0.022704
2340.7682,0.022673
2342.6318,0.022893
2344.4955,0.023351
2346.3592,0.023128
2348.2228,0.022180
2350.0865,0.021627
2351.9502,0.021533
2353.8138,0.022106
2355.6775,0.022315
2357.5412,0.022253
2359.4049,0.022383
2361.2685,0.022482
2363.1322,0.022661
2364.9959,0.022807
2366.8595,0.022689
2368.7232,0.022721
2370.5869,0.022982
2372.4505,0.023546
2374.3142,0.023682
2376.1779,0.023496
2378.0415,0.023401
2379.9052,0.023280
2381.7689,0.022996
2383.6325,0.022873
2385.4962,0.023059
2387.3599,0.023282
2389.2236,0.023221
2391.0872,0.022866
2392.9509,0.022796
2394.8146,0.022875
2396.6782,0.022887
2398.5419,0.023030
2400.4056,0.023277
2402.2692,0.023319
2404.1329,0.023198
2405.9966,0.022935
2407.8602,0.023045
2409.7239,0.023609
2411.5876,0.023643
2413.4512,0.023268
2415.3149,0.023106
2417.1786,0.023472
2419.0423,0.023737
2420.9059,0.023878
2422.7696,0.023916
2424.6333,0.023832
2426.4969,0.023804
2428.3606,0.023793
2430.2243,0.023914
2432.0879,0.023894
2433.9516,0.023885
2435.8153,0.023947
2437.6789,0.024020
2439.5426,0.024434
2441.4063,0.024687
2443.2700,0.024727
2445.1336,0.024428
2446.9973,0.024400
2448.8610,0.024593
2450.7246,0.024552
2452.5883,0.024437
2454.4520,0.024407
2456.3156,0.024128
2458.1793,0.024497
2460.0430,0.024390
2461.9066,0.024152
2463.7703,0.024276
2465.6340,0.024348
2467.4976,0.024206
2469.3613,0.024530
2471.2250,0.024704
2473.0887,0.024697
2474.9523,0.024719
2476.8160,0.024874
2478.6797,0.025086
2480.5433,0.024968
2482.4070,0.024488
2484.2707,0.024395
2486.1343,0.024523
2487.9980,0.024776
2489.8617,0.024918
2491.7253,0.025264
2493.5890,0.025347
2495.4527,0.025367
2497.3164,0.025153
2499.1800,0.024902
2501.0437,0.024901
2502.9074,0.025214
2504.7710,0.025543
2506.6347,0.025679
2508.4984,0.025412
2510.3620,0.025153
2512.2257,0.025100
2514.0894,0.025150
2515.9530,0.025273
2517.8167,0.025487
2519.6804,0.025485
2521.5440,0.025826
2523.4077,0.026176
2525.2714,0.026138
2527.1351,0.025709
