Wavenumber,Intensity
650.4205,0.143533
652.2841,0.140524
654.1478,0.142261
656.0115,0.141435
657.8751,0.138057
659.7388,0.134236
661.6025,0.131813
663.4661,0.131304
665.3298,0.130349
667.1935,0.128235
669.0571,0.128927
670.9208,0.129756
672.7845,0.130157
674.6481,0.129982
676.5118,0.129162
678.3755,0.128548
680.2392,0.129787
682.1028,0.128787
683.9665,0.127401
685.8302,0.128576
687.6938,0.129934
689.5575,0.129972
691.4212,0.129796
693.2848,0.129199
695.1485,0.130320
697.0122,0.132182
698.8758,0.132981
700.7395,0.132436
702.6032,0.132307
704.4669,0.131639
706.3305,0.130140
708.1942,0.127118
710.0579,0.123020
711.9215,0.118713
713.7852,0.114672
715.6489,0.110400
717.5125,0.107168
719.3762,0.103896
721.2399,0.100899
723.1035,0.098129
724.9672,0.095590
726.8309,0.093471
728.6945,0.091945
730.5582,0.090363
732.4219,0.089199
734.2856,0.088135
736.1492,0.086712
738.0129,0.085347
739.8766,0.085548
741.7402,0.087445
743.6039,0.089375
745.4676,0.090130
747.3312,0.090891
749.1949,0.091951
751.0586,0.092760
752.9222,0.093137
754.7859,0.093421
756.6496,0.093950
758.5132,0.094159
760.3769,0.093228
762.2406,0.092020
764.1043,0.090961
765.9679,0.089724
767.8316,0.088052
769.6953,0.086783
771.5589,0.085289
773.4226,0.083682
775.2863,0.082628
777.1499,0.082387
779.0136,0.082177
780.8773,0.081703
782.7409,0.081229
784.6046,0.081628
786.4683,0.082490
788.3320,0.082592
790.1956,0.082321
792.0593,0.082644
793.9230,0.082980
795.7866,0.082919
797.6503,0.082893
799.5140,0.083027
801.3776,0.083034
803.2413,0.082816
805.1050,0.082455
806.9686,0.082292
808.8323,0.082070
810.6960,0.081125
812.5596,0.080044
814.4233,0.079156
816.2870,0.078226
818.1507,0.077629
820.0143,0.077148
821.8780,0.076918
823.7417,0.077007
825.6053,0.077753
827.4690,0.079459
829.3327,0.080880
831.1963,0.079773
833.0600,0.076562
834.9237,0.074000
836.7873,0.073355
838.6510,0.073777
840.5147,0.074336
842.3784,0.074523
844.2420,0.074641
846.1057,0.074874
847.9694,0.074844
849.8330,0.074470
851.6967,0.074107
853.5604,0.073470
855.4240,0.073014
857.2877,0.072867
859.1514,0.072451
861.0150,0.071815
862.8787,0.071106
864.7424,0.070245
866.6060,0.069552
868.4697,0.069117
870.3334,0.068498
872.1971,0.067826
874.0607,0.067498
875.9244,0.067536
877.7881,0.068014
879.6517,0.068803
881.5154,0.069933
883.3791,0.071302
885.2427,0.072610
887.1064,0.073833
888.9701,0.075267
890.8337,0.076855
892.6974,0.078279
894.5611,0.079491
896.4247,0.080705
898.2884,0.081845
900.1521,0.083021
902.0158,0.084419
903.8794,0.086230
905.7431,0.088362
907.6068,0.090853
909.4704,0.093896
911.3341,0.097666
913.1978,0.101625
915.0614,0.103846
916.9251,0.101644
918.7888,0.096502
920.6524,0.092779
922.5161,0.091638
924.3798,0.091527
926.2435,0.091801
928.1071,0.092029
929.9708,0.091891
931.8345,0.091746
933.6981,0.091715
935.5618,0.091469
937.4255,0.091023
939.2891,0.090305
941.1528,0.089620
943.0165,0.089268
944.8801,0.089309
946.7438,0.089968
948.6075,0.091301
950.4711,0.093358
952.3348,0.096057
954.1985,0.098955
956.0622,0.102012
957.9258,0.105246
959.7895,0.108720
961.6532,0.112538
963.5168,0.116627
965.3805,0.120973
967.2442,0.125708
969.1078,0.130938
970.9715,0.136696
972.8352,0.142949
974.6988,0.150266
976.5625,0.159339
978.4262,0.170891
980.2899,0.184324
982.1535,0.191514
984.0172,0.184138
985.8809,0.172528
987.7445,0.167872
989.6082,0.167705
991.4719,0.168083
993.3355,0.168422
995.1992,0.168378
997.0629,0.167873
998.9265,0.167141
1000.7902,0.166352
1002.6539,0.165546
1004.5175,0.165252
1006.3812,0.165538
1008.2449,0.166083
1010.1086,0.166577
1011.9722,0.166956
1013.8359,0.166981
1015.6996,0.166463
1017.5632,0.165412
1019.4269,0.163877
1021.2906,0.161689
1023.1542,0.159127
1025.0179,0.156279
1026.8816,0.153230
1028.7452,0.150264
1030.6089,0.147532
1032.4726,0.144849
1034.3362,0.142256
1036.1999,0.139923
1038.0636,0.137934
1039.9273,0.136017
1041.7909,0.134054
1043.6546,0.132156
1045.5183,0.130406
1047.3819,0.128484
1049.2456,0.125511
1051.1093,0.120779
1052.9729,0.114811
1054.8366,0.109040
1056.7003,0.104344
1058.5639,0.100701
1060.4276,0.097897
1062.2913,0.095892
1064.1550,0.094875
1066.0186,0.095239
1067.8823,0.097363
1069.7460,0.100847
1071.6096,0.104915
1073.4733,0.108737
1075.3370,0.111268
1077.2006,0.111833
1079.0643,0.110697
1080.9280,0.108384
1082.7916,0.105442
1084.6553,0.102375
1086.5190,0.099619
1088.3826,0.097482
1090.2463,0.096297
1092.1100,0.096153
1093.9737,0.096991
1095.8373,0.098582
1097.7010,0.100642
1099.5647,0.102922
1101.4283,0.105129
1103.2920,0.106922
1105.1557,0.107870
1107.0193,0.107456
1108.8830,0.105256
1110.7467,0.101287
1112.6103,0.096233
1114.4740,0.090906
1116.3377,0.086008
1118.2014,0.082005
1120.0650,0.079022
1121.9287,0.076927
1123.7924,0.075417
1125.6560,0.074184
1127.5197,0.073063
1129.3834,0.072190
1131.2470,0.071875
1133.1107,0.072078
1134.9744,0.072753
1136.8380,0.074006
1138.7017,0.075809
1140.5654,0.077792
1142.4290,0.079547
1144.2927,0.080781
1146.1564,0.081377
1148.0201,0.081388
1149.8837,0.080671
1151.7474,0.079119
1153.6111,0.076965
1155.4747,0.074246
1157.3384,0.070867
1159.2021,0.067033
1161.0657,0.063202
1162.9294,0.059639
1164.7931,0.056352
1166.6567,0.053574
1168.5204,0.051606
1170.3841,0.050294
1172.2477,0.049189
1174.1114,0.047672
1175.9751,0.045402
1177.8388,0.042895
1179.7024,0.041053
1181.5661,0.040265
1183.4298,0.040139
1185.2934,0.040368
1187.1571,0.040918
1189.0208,0.041683
1190.8844,0.042484
1192.7481,0.043247
1194.6118,0.043977
1196.4754,0.044705
1198.3391,0.045442
1200.2028,0.046021
1202.0665,0.046401
1203.9301,0.046625
1205.7938,0.046742
1207.6575,0.046830
1209.5211,0.046955
1211.3848,0.047150
1213.2485,0.047408
1215.1121,0.047778
1216.9758,0.048240
1218.8395,0.048792
1220.7031,0.049452
1222.5668,0.050157
1224.4305,0.050852
1226.2941,0.051546
1228.1578,0.052150
1230.0215,0.052606
1231.8852,0.053040
1233.7488,0.053454
1235.6125,0.053837
1237.4762,0.054141
1239.3398,0.054426
1241.2035,0.054780
1243.0672,0.055039
1244.9308,0.055257
1246.7945,0.055551
1248.6582,0.055831
1250.5218,0.056074
1252.3855,0.056324
1254.2492,0.056572
1256.1129,0.056772
1257.9765,0.056971
1259.8402,0.057300
1261.7039,0.057645
1263.5675,0.057980
1265.4312,0.058353
1267.2949,0.058472
1269.1585,0.058411
1271.0222,0.058495
1272.8859,0.058599
1274.7495,0.058711
1276.6132,0.059139
1278.4769,0.059801
1280.3405,0.060482
1282.2042,0.061204
1284.0679,0.062072
1285.9316,0.063153
1287.7952,0.064393
1289.6589,0.065653
1291.5226,0.067022
1293.3862,0.068587
1295.2499,0.070310
1297.1136,0.072357
1298.9772,0.074765
1300.8409,0.077450
1302.7046,0.080233
1304.5682,0.082415
1306.4319,0.082571
1308.2956,0.079254
1310.1592,0.072597
1312.0229,0.065431
1313.8866,0.060816
1315.7503,0.059299
1317.6139,0.059758
1319.4776,0.061138
1321.3413,0.062444
1323.2049,0.063684
1325.0686,0.065115
1326.9323,0.066518
1328.7959,0.067808
1330.6596,0.068937
1332.5233,0.069748
1334.3869,0.070132
1336.2506,0.070381
1338.1143,0.071104
1339.9780,0.072100
1341.8416,0.072173
1343.7053,0.071841
1345.5690,0.071987
1347.4326,0.072404
1349.2963,0.072978
1351.1600,0.073573
1353.0236,0.074223
1354.8873,0.075141
1356.7510,0.076002
1358.6146,0.076532
1360.4783,0.077424
1362.3420,0.079298
1364.2056,0.080574
1366.0693,0.080641
1367.9330,0.081264
1369.7967,0.082118
1371.6603,0.082580
1373.5240,0.083851
1375.3877,0.085351
1377.2513,0.085871
1379.1150,0.086744
1380.9787,0.088142
1382.8423,0.089597
1384.7060,0.091268
1386.5697,0.094028
1388.4333,0.097283
1390.2970,0.098696
1392.1607,0.099419
1394.0244,0.100337
1395.8880,0.099937
1397.7517,0.097590
1399.6154,0.094468
1401.4790,0.090949
1403.3427,0.087793
1405.2064,0.083580
1407.0700,0.077293
1408.9337,0.070890
1410.7974,0.065171
1412.6610,0.060893
1414.5247,0.058608
1416.3884,0.058305
1418.2520,0.060417
1420.1157,0.063665
1421.9794,0.064209
1423.8431,0.062881
1425.7067,0.059321
1427.5704,0.055319
1429.4341,0.052913
1431.2977,0.051658
1433.1614,0.050937
1435.0251,0.051325
1436.8887,0.053131
1438.7524,0.053634
1440.6161,0.053249
1442.4797,0.053480
1444.3434,0.053654
1446.2071,0.053988
1448.0707,0.054342
1449.9344,0.053540
1451.7981,0.052018
1453.6618,0.050539
1455.5254,0.050306
1457.3891,0.052757
1459.2528,0.052907
1461.1164,0.051035
1462.9801,0.050123
1464.8438,0.049976
1466.7074,0.048988
1468.5711,0.047099
1470.4348,0.045971
1472.2984,0.046209
1474.1621,0.046181
1476.0258,0.045246
1477.8895,0.044397
1479.7531,0.043737
1481.6168,0.043561
1483.4805,0.043158
1485.3441,0.042710
1487.2078,0.043071
1489.0715,0.044247
1490.9351,0.044878
1492.7988,0.043868
1494.6625,0.043332
1496.5261,0.044578
1498.3898,0.045812
1500.2535,0.045551
1502.1171,0.044683
1503.9808,0.044069
1505.8445,0.045440
1507.7082,0.049277
1509.5718,0.048588
1511.4355,0.047625
1513.2992,0.047439
1515.1628,0.047730
1517.0265,0.048674
1518.8902,0.048892
1520.7538,0.049509
1522.6175,0.051182
1524.4812,0.050982
1526.3448,0.051301
1528.2085,0.051619
1530.0722,0.051162
1531.9359,0.051590
1533.7995,0.053061
1535.6632,0.052662
1537.5269,0.051833
1539.3905,0.053919
1541.2542,0.057750
1543.1179,0.057713
1544.9815,0.057602
1546.8452,0.057454
1548.7089,0.057732
1550.5725,0.058783
1552.4362,0.059211
1554.2999,0.059429
1556.1635,0.059963
1558.0272,0.062556
1559.8909,0.069011
1561.7546,0.066750
1563.6182,0.065227
1565.4819,0.065870
1567.3456,0.066947
1569.2092,0.068971
1571.0729,0.070673
1572.9366,0.070116
1574.8002,0.071213
1576.6639,0.074889
1578.5276,0.076055
1580.3912,0.075751
1582.2549,0.076594
1584.1186,0.077693
1585.9822,0.078699
1587.8459,0.079344
1589.7096,0.079918
1591.5733,0.080338
1593.4369,0.080518
1595.3006,0.080584
1597.1643,0.080299
1599.0279,0.079740
1600.8916,0.079307
1602.7553,0.078838
1604.6189,0.078287
1606.4826,0.077734
1608.3463,0.077389
1610.2099,0.076912
1612.0736,0.075983
1613.9373,0.074938
1615.8010,0.074616
1617.6646,0.073710
1619.5283,0.070667
1621.3920,0.068376
1623.2556,0.066811
1625.1193,0.064364
1626.9830,0.061442
1628.8466,0.058093
1630.7103,0.054287
1632.5740,0.051134
1634.4376,0.049068
1636.3013,0.047633
1638.1650,0.045404
1640.0286,0.043782
1641.8923,0.042785
1643.7560,0.042486
1645.6197,0.043338
1647.4833,0.045005
1649.3470,0.044655
1651.2107,0.044473
1653.0743,0.047748
1654.9380,0.050296
1656.8017,0.048210
1658.6653,0.047481
1660.5290,0.047486
1662.3927,0.047696
1664.2563,0.047144
1666.1200,0.045720
1667.9837,0.044863
1669.8474,0.044749
1671.7110,0.044123
1673.5747,0.043842
1675.4384,0.044817
1677.3020,0.045523
1679.1657,0.045644
1681.0294,0.046660
1682.8930,0.048740
1684.7567,0.052728
1686.6204,0.053129
1688.4840,0.051927
1690.3477,0.051325
1692.2114,0.050035
1694.0750,0.048729
1695.9387,0.048034
1697.8024,0.046936
1699.6661,0.045998
1701.5297,0.044082
1703.3934,0.040913
1705.2571,0.038204
1707.1207,0.035077
1708.9844,0.032097
1710.8481,0.029792
1712.7117,0.028098
1714.5754,0.027231
1716.4391,0.027186
1718.3027,0.027424
1720.1664,0.026460
1722.0301,0.025377
1723.8937,0.024665
1725.7574,0.023752
1727.6211,0.022727
1729.4848,0.022079
1731.3484,0.021644
1733.2121,0.021848
1735.0758,0.022208
1736.9394,0.021219
1738.8031,0.020753
1740.6668,0.020902
1742.5304,0.020684
1744.3941,0.020455
1746.2578,0.020123
1748.1214,0.020240
1749.9851,0.020638
1751.8488,0.020530
1753.7125,0.020035
1755.5761,0.019942
1757.4398,0.020098
1759.3035,0.019867
1761.1671,0.019852
1763.0308,0.020078
1764.8945,0.019704
1766.7581,0.019472
1768.6218,0.019450
1770.4855,0.019550
1772.3491,0.020091
1774.2128,0.020358
1776.0765,0.019860
1777.9401,0.019687
1779.8038,0.019712
1781.6675,0.019765
1783.5312,0.019590
1785.3948,0.019611
1787.2585,0.019545
1789.1222,0.019436
1790.9858,0.019714
1792.8495,0.020176
1794.7132,0.019966
1796.5768,0.019605
1798.4405,0.019579
1800.3042,0.019976
1802.1678,0.020199
1804.0315,0.020004
1805.8952,0.019775
1807.7589,0.019830
1809.6225,0.019952
1811.4862,0.020157
1813.3499,0.019966
1815.2135,0.019672
1817.0772,0.019641
1818.9409,0.019678
1820.8045,0.019703
1822.6682,0.019547
1824.5319,0.019494
1826.3955,0.019683
1828.2592,0.019696
1830.1229,0.020117
1831.9865,0.020112
1833.8502,0.019724
1835.7139,0.019725
1837.5776,0.019839
1839.4412,0.019617
1841.3049,0.019425
1843.1686,0.019781
1845.0322,0.020132
1846.8959,0.019724
1848.7596,0.019601
1850.6232,0.019659
1852.4869,0.019644
1854.3506,0.019644
1856.2142,0.019680
1858.0779,0.019735
1859.9416,0.019671
1861.8052,0.019598
1863.6689,0.019509
1865.5326,0.019505
1867.3963,0.019871
1869.2599,0.020114
1871.1236,0.019809
1872.9873,0.019575
1874.8509,0.019408
1876.7146,0.019236
1878.5783,0.019295
1880.4419,0.019250
1882.3056,0.019360
1884.1693,0.019489
1886.0329,0.019533
1887.8966,0.019487
1889.7603,0.019749
1891.6240,0.019863
1893.4876,0.019559
1895.3513,0.019369
1897.2150,0.019390
1899.0786,0.019184
1900.9423,0.019148
1902.8060,0.019357
1904.6696,0.019453
1906.5333,0.019427
1908.3970,0.019435
1910.2606,0.019075
1912.1243,0.018722
1913.9880,0.018997
1915.8516,0.019163
1917.7153,0.019236
1919.5790,0.018960
1921.4427,0.018442
1923.3063,0.018735
1925.1700,0.018645
1927.0337,0.018334
1928.8973,0.018485
1930.7610,0.018623
1932.6247,0.018228
1934.4883,0.017655
1936.3520,0.017629
1938.2157,0.017578
1940.0793,0.017523
1941.9430,0.017816
1943.8067,0.017582
1945.6704,0.017051
1947.5340,0.016860
1949.3977,0.016308
1951.2614,0.015831
1953.1250,0.015709
1954.9887,0.014924
1956.8524,0.014558
1958.7160,0.014294
1960.5797,0.013453
1962.4434,0.012426
1964.3070,0.012657
1966.1707,0.013061
1968.0344,0.011910
1969.8980,0.012211
1971.7617,0.013051
1973.6254,0.011777
1975.4891,0.010108
1977.3527,0.009180
1979.2164,0.010212
1981.0801,0.011874
1982.9437,0.013118
1984.8074,0.012955
1986.6711,0.012583
1988.5347,0.013109
1990.3984,0.013644
1992.2621,0.012835
1994.1257,0.012755
1995.9894,0.013358
1997.8531,0.013802
1999.7167,0.013723
2001.5804,0.013506
2003.4441,0.012484
2005.3078,0.012105
2007.1714,0.012047
2009.0351,0.011614
2010.8988,0.011598
2012.7624,0.012051
2014.6261,0.011894
2016.4898,0.012271
2018.3534,0.011549
2020.2171,0.011587
2022.0808,0.011471
2023.9444,0.010441
2025.8081,0.009833
2027.6718,0.010625
2029.5355,0.010279
2031.3991,0.010205
2033.2628,0.010423
2035.1265,0.010658
2036.9901,0.010785
2038.8538,0.011025
2040.7175,0.012067
2042.5811,0.013400
2044.4448,0.013778
2046.3085,0.014671
2048.1721,0.016111
2050.0358,0.016719
2051.8995,0.016778
2053.7631,0.017223
2055.6268,0.017236
2057.4905,0.017579
2059.3542,0.017822
2061.2178,0.018116
2063.0815,0.018301
2064.9452,0.018772
2066.8088,0.018155
2068.6725,0.017711
2070.5362,0.018534
2072.3998,0.019033
2074.2635,0.019495
2076.1272,0.020029
2077.9908,0.019832
2079.8545,0.020056
2081.7182,0.020270
2083.5819,0.019962
2085.4455,0.019800
2087.3092,0.020103
2089.1729,0.020218
2091.0365,0.020271
2092.9002,0.019857
2094.7639,0.019726
2096.6275,0.020361
2098.4912,0.020662
2100.3549,0.020589
2102.2185,0.020562
2104.0822,0.020374
2105.9459,0.020553
2107.8095,0.020743
2109.6732,0.021114
2111.5369,0.021365
2113.4006,0.021243
2115.2642,0.020925
2117.1279,0.020844
2118.9916,0.021066
2120.8552,0.021430
2122.7189,0.021091
2124.5826,0.020298
2126.4462,0.020062
2128.3099,0.019736
2130.1736,0.019109
2132.0372,0.019180
2133.9009,0.019393
2135.7646,0.019865
2137.6282,0.019293
2139.4919,0.018320
2141.3556,0.018074
2143.2193,0.017227
2145.0829,0.017243
2146.9466,0.016600
2148.8103,0.015286
2150.6739,0.014719
2152.5376,0.012835
2154.4013,0.011083
2156.2649,0.011121
2158.1286,0.011432
2159.9923,0.010481
2161.8559,0.009996
2163.7196,0.011250
2165.5833,0.012463
2167.4470,0.011915
2169.3106,0.013527
2171.1743,0.014107
2173.0380,0.013976
2174.9016,0.014274
2176.7653,0.014184
2178.6290,0.014463
2180.4926,0.014333
2182.3563,0.015192
2184.2200,0.015735
2186.0836,0.016216
2187.9473,0.016565
2189.8110,0.016625
2191.6746,0.016806
2193.5383,0.017728
2195.4020,0.018143
2197.2657,0.018303
2199.1293,0.018266
2200.9930,0.018666
2202.8567,0.018846
2204.7203,0.018037
2206.5840,0.018276
2208.4477,0.018394
2210.3113,0.017628
2212.1750,0.017872
2214.0387,0.018116
2215.9023,0.018302
2217.7660,0.018672
2219.6297,0.019267
2221.4934,0.020016
2223.3570,0.019912
2225.2207,0.020036
2227.0844,0.020014
2228.9480,0.019938
2230.8117,0.020076
2232.6754,0.020861
2234.5390,0.021650
2236.4027,0.021385
2238.2664,0.021192
2240.1300,0.021600
2241.9937,0.021540
2243.8574,0.021114
2245.7210,0.020753
2247.5847,0.021359
2249.4484,0.022063
2251.3121,0.021778
2253.1757,0.021971
2255.0394,0.022114
2256.9031,0.022264
2258.7667,0.023001
2260.6304,0.022937
2262.4941,0.022753
2264.3577,0.023103
2266.2214,0.023505
2268.0851,0.023275
2269.9487,0.023524
2271.8124,0.023787
2273.6761,0.023638
2275.5397,0.024733
2277.4034,0.025399
2279.2671,0.024939
2281.1308,0.025206
2282.9944,0.025834
2284.8581,0.026134
2286.7218,0.026313
2288.5854,0.026142
2290.4491,0.025858
2292.3128,0.025825
2294.1764,0.025982
2296.0401,0.026010
2297.9038,0.026179
2299.7674,0.026157
2301.6311,0.026239
2303.4948,0.026478
2305.3585,0.026545
2307.2221,0.026373
2309.0858,0.026452
2310.9495,0.026535
2312.8131,0.026458
2314.6768,0.026462
2316.5405,0.026781
2318.4041,0.026976
2320.2678,0.027007
2322.1315,0.027090
2323.9951,0.027524
2325.8588,0.027438
2327.7225,0.026829
2329.5861,0.026546
2331.4498,0.026540
2333.3135,0.026617
2335.1772,0.026579
2337.0408,0.026466
2338.9045,0.026517
2340.7682,0.027011
2342.6318,0.027638
2344.4955,0.028118
2346.3592,0.027833
2348.2228,0.026969
2350.0865,0.026071
2351.9502,0.025865
2353.8138,0.026490
2355.6775,0.026777
2357.5412,0.026490
2359.4049,0.026326
2361.2685,0.026636
2363.1322,0.027078
2364.9959,0.027286
2366.8595,0.027103
2368.7232,0.027158
2370.5869,0.027532
2372.4505,0.027748
2374.3142,0.027986
2376.1779,0.027799
2378.0415,0.027593
2379.9052,0.027583
2381.7689,0.027671
2383.6325,0.027737
2385.4962,0.027550
2387.3599,0.027430
2389.2236,0.027410
2391.0872,0.027515
2392.9509,0.027669
2394.8146,0.027518
2396.6782,0.027443
2398.5419,0.027653
2400.4056,0.027826
2402.2692,0.027917
2404.1329,0.027685
2405.9966,0.027491
2407.8602,0.027745
2409.7239,0.027947
2411.5876,0.027824
2413.4512,0.027953
2415.3149,0.028118
2417.1786,0.028055
2419.0423,0.028390
2420.9059,0.028377
2422.7696,0.028089
2424.6333,0.028152
2426.4969,0.028202
2428.3606,0.028579
2430.2243,0.028763
2432.0879,0.028593
2433.9516,0.028505
2435.8153,0.028178
2437.6789,0.028045
2439.5426,0.028313
2441.4063,0.028526
2443.2700,0.028637
2445.1336,0.028595
2446.9973,0.028501
2448.8610,0.028651
2450.7246,0.029020
2452.5883,0.029195
2454.4520,0.029085
2456.3156,0.029035
2458.1793,0.028959
2460.0430,0.028893
2461.9066,0.028986
2463.7703,0.029052
2465.6340,0.029115
2467.4976,0.028939
2469.3613,0.028959
2471.2250,0.028697
2473.0887,0.028438
2474.9523,0.028785
2476.8160,0.029243
2478.6797,0.029197
2480.5433,0.029256
2482.4070,0.029723
2484.2707,0.029676
2486.1343,0.029518
2487.9980,0.029496
2489.8617,0.029468
2491.7253,0.029454
2493.5890,0.029352
2495.4527,0.029362
2497.3164,0.029674
2499.1800,0.029862
2501.0437,0.030077
2502.9074,0.030053
2504.7710,0.029978
2506.6347,0.030037
2508.4984,0.030083
2510.3620,0.030039
2512.2257,0.030039
2514.0894,0.029693
2515.9530,0.029730
2517.8167,0.030181
2519.6804,0.030342
2521.5440,0.030525
2523.4077,0.030985
2525.2714,0.031041
2527.1351,0.030718
