Wavenumber,Intensity
650.4205,0.119735
652.2841,0.132787
654.1478,0.148405
656.0115,0.160601
657.8751,0.174851
659.7388,0.192375
661.6025,0.210063
663.4661,0.225406
665.3298,0.239559
667.1935,0.247637
669.0571,0.237760
670.9208,0.218657
672.7845,0.200813
674.6481,0.182580
676.5118,0.169110
678.3755,0.158585
680.2392,0.149822
682.1028,0.139689
683.9665,0.129445
685.8302,0.117595
687.6938,0.106305
689.5575,0.096524
691.4212,0.087785
693.2848,0.079224
695.1485,0.070955
697.0122,0.065328
698.8758,0.062084
700.7395,0.059709
702.6032,0.058096
704.4669,0.056763
706.3305,0.055764
708.1942,0.054649
710.0579,0.053313
711.9215,0.052239
713.7852,0.051108
715.6489,0.050160
717.5125,0.050395
719.3762,0.050264
721.2399,0.048868
723.1035,0.047634
724.9672,0.048090
726.8309,0.048336
728.6945,0.048081
730.5582,0.048475
732.4219,0.048939
734.2856,0.048825
736.1492,0.049075
738.0129,0.049523
739.8766,0.050142
741.7402,0.051340
743.6039,0.052718
745.4676,0.054012
747.3312,0.055361
749.1949,0.056144
751.0586,0.056759
752.9222,0.057193
754.7859,0.057739
756.6496,0.058777
758.5132,0.060229
760.3769,0.061470
762.2406,0.062452
764.1043,0.063064
765.9679,0.063632
767.8316,0.064825
769.6953,0.066050
771.5589,0.066505
773.4226,0.067558
775.2863,0.069261
777.1499,0.070779
779.0136,0.072604
780.8773,0.074299
782.7409,0.074487
784.6046,0.074540
786.4683,0.075355
788.3320,0.076339
790.1956,0.076678
792.0593,0.077035
793.9230,0.077672
795.7866,0.078923
797.6503,0.080602
799.5140,0.082040
801.3776,0.083246
803.2413,0.084635
805.1050,0.085548
806.9686,0.086490
808.8323,0.087819
810.6960,0.089270
812.5596,0.090459
814.4233,0.091896
816.2870,0.093127
818.1507,0.094654
820.0143,0.096546
821.8780,0.098166
823.7417,0.099682
825.6053,0.101422
827.4690,0.103411
829.3327,0.105345
831.1963,0.106861
833.0600,0.107986
834.9237,0.108910
836.7873,0.110349
838.6510,0.112066
840.5147,0.113939
842.3784,0.115885
844.2420,0.118145
846.1057,0.120508
847.9694,0.122816
849.8330,0.124983
851.6967,0.127239
853.5604,0.129492
855.4240,0.131868
857.2877,0.133893
859.1514,0.135816
861.0150,0.138011
862.8787,0.140126
864.7424,0.142023
866.6060,0.144061
868.4697,0.146173
870.3334,0.148330
872.1971,0.150462
874.0607,0.152958
875.9244,0.155545
877.7881,0.158184
879.6517,0.160643
881.5154,0.162970
883.3791,0.165344
885.2427,0.167729
887.1064,0.169464
888.9701,0.171152
890.8337,0.172804
892.6974,0.174389
894.5611,0.176167
896.4247,0.178060
898.2884,0.179610
900.1521,0.181483
902.0158,0.183925
903.8794,0.186600
905.7431,0.189344
907.6068,0.192142
909.4704,0.194598
911.3341,0.197155
913.1978,0.199756
915.0614,0.201899
916.9251,0.202819
918.7888,0.203280
920.6524,0.204113
922.5161,0.205795
924.3798,0.207767
926.2435,0.209781
928.1071,0.211742
929.9708,0.213668
931.8345,0.215708
933.6981,0.217973
935.5618,0.219819
937.4255,0.221651
939.2891,0.223473
941.1528,0.225083
943.0165,0.226581
944.8801,0.228239
946.7438,0.229850
948.6075,0.231392
950.4711,0.232872
952.3348,0.234743
954.1985,0.236813
956.0622,0.238835
957.9258,0.240659
959.7895,0.242473
961.6532,0.244185
963.5168,0.246101
965.3805,0.248136
967.2442,0.250176
969.1078,0.252122
970.9715,0.254274
972.8352,0.256475
974.6988,0.258603
976.5625,0.260909
978.4262,0.263615
980.2899,0.266186
982.1535,0.267331
984.0172,0.266162
985.8809,0.265072
987.7445,0.265385
989.6082,0.266364
991.4719,0.267139
993.3355,0.267698
995.1992,0.268124
997.0629,0.268331
998.9265,0.268113
1000.7902,0.267622
1002.6539,0.266552
1004.5175,0.264907
1006.3812,0.262519
1008.2449,0.259028
1010.1086,0.253542
1011.9722,0.246026
1013.8359,0.237279
1015.6996,0.228276
1017.5632,0.219092
1019.4269,0.209842
1021.2906,0.200942
1023.1542,0.192384
1025.0179,0.183837
1026.8816,0.175599
1028.7452,0.167701
1030.6089,0.160174
1032.4726,0.152667
1034.3362,0.145009
1036.1999,0.137456
1038.0636,0.129987
1039.9273,0.122481
1041.7909,0.115107
1043.6546,0.107935
1045.5183,0.101028
1047.3819,0.094788
1049.2456,0.089854
1051.1093,0.086243
1052.9729,0.084061
1054.8366,0.083203
1056.7003,0.083005
1058.5639,0.082837
1060.4276,0.082461
1062.2913,0.081836
1064.1550,0.081232
1066.0186,0.080693
1067.8823,0.080103
1069.7460,0.079546
1071.6096,0.078923
1073.4733,0.078177
1075.3370,0.077387
1077.2006,0.076357
1079.0643,0.075162
1080.9280,0.073966
1082.7916,0.072698
1084.6553,0.071470
1086.5190,0.070359
1088.3826,0.069352
1090.2463,0.068481
1092.1100,0.067667
1093.9737,0.066977
1095.8373,0.066312
1097.7010,0.065593
1099.5647,0.064959
1101.4283,0.064343
1103.2920,0.063585
1105.1557,0.062742
1107.0193,0.061670
1108.8830,0.060283
1110.7467,0.058652
1112.6103,0.056909
1114.4740,0.055099
1116.3377,0.053330
1118.2014,0.051673
1120.0650,0.050178
1121.9287,0.048944
1123.7924,0.047819
1125.6560,0.046587
1127.5197,0.045286
1129.3834,0.044017
1131.2470,0.042744
1133.1107,0.041410
1134.9744,0.040047
1136.8380,0.038814
1138.7017,0.037650
1140.5654,0.036304
1142.4290,0.035009
1144.2927,0.033850
1146.1564,0.032669
1148.0201,0.031555
1149.8837,0.030516
1151.7474,0.029503
1153.6111,0.028594
1155.4747,0.027761
1157.3384,0.026924
1159.2021,0.026125
1161.0657,0.025398
1162.9294,0.024820
1164.7931,0.024288
1166.6567,0.023760
1168.5204,0.023410
1170.3841,0.023223
1172.2477,0.023009
1174.1114,0.022655
1175.9751,0.022175
1177.8388,0.021712
1179.7024,0.021374
1181.5661,0.021161
1183.4298,0.021033
1185.2934,0.020997
1187.1571,0.021060
1189.0208,0.021176
1190.8844,0.021283
1192.7481,0.021334
1194.6118,0.021405
1196.4754,0.021540
1198.3391,0.021732
1200.2028,0.021934
1202.0665,0.022096
1203.9301,0.022230
1205.7938,0.022368
1207.6575,0.022545
1209.5211,0.022767
1211.3848,0.022982
1213.2485,0.023107
1215.1121,0.023096
1216.9758,0.023046
1218.8395,0.023062
1220.7031,0.023181
1222.5668,0.023187
1224.4305,0.023090
1226.2941,0.023089
1228.1578,0.023022
1230.0215,0.022874
1231.8852,0.022836
1233.7488,0.022904
1235.6125,0.022914
1237.4762,0.022784
1239.3398,0.022686
1241.2035,0.022664
1243.0672,0.022618
1244.9308,0.022604
1246.7945,0.022507
1248.6582,0.022371
1250.5218,0.022303
1252.3855,0.022213
1254.2492,0.022176
1256.1129,0.022231
1257.9765,0.022314
1259.8402,0.022319
1261.7039,0.022270
1263.5675,0.022301
1265.4312,0.022332
1267.2949,0.022302
1269.1585,0.022245
1271.0222,0.022249
1272.8859,0.022313
1274.7495,0.022424
1276.6132,0.022521
1278.4769,0.022614
1280.3405,0.022865
1282.2042,0.023136
1284.0679,0.023359
1285.9316,0.023676
1287.7952,0.023938
1289.6589,0.024123
1291.5226,0.024403
1293.3862,0.024776
1295.2499,0.025219
1297.1136,0.025670
1298.9772,0.026166
1300.8409,0.026807
1302.7046,0.027465
1304.5682,0.027894
1306.4319,0.027889
1308.2956,0.027220
1310.1592,0.025991
1312.0229,0.024662
1313.8866,0.023798
1315.7503,0.023644
1317.6139,0.023864
1319.4776,0.024218
1321.3413,0.024598
1323.2049,0.024978
1325.0686,0.025422
1326.9323,0.025861
1328.7959,0.026243
1330.6596,0.026611
1332.5233,0.026986
1334.3869,0.027230
1336.2506,0.027379
1338.1143,0.027660
1339.9780,0.028101
1341.8416,0.028469
1343.7053,0.028717
1345.5690,0.028951
1347.4326,0.029165
1349.2963,0.029434
1351.1600,0.029742
1353.0236,0.030055
1354.8873,0.030318
1356.7510,0.030398
1358.6146,0.030410
1360.4783,0.030453
1362.3420,0.030591
1364.2056,0.030694
1366.0693,0.030610
1367.9330,0.030611
1369.7967,0.030691
1371.6603,0.030709
1373.5240,0.030801
1375.3877,0.030939
1377.2513,0.031083
1379.1150,0.031329
1380.9787,0.031627
1382.8423,0.031850
1384.7060,0.032054
1386.5697,0.032467
1388.4333,0.032937
1390.2970,0.033160
1392.1607,0.033397
1394.0244,0.033662
1395.8880,0.033500
1397.7517,0.032986
1399.6154,0.032284
1401.4790,0.031589
1403.3427,0.031217
1405.2064,0.030696
1407.0700,0.029641
1408.9337,0.028324
1410.7974,0.026965
1412.6610,0.025859
1414.5247,0.025191
1416.3884,0.024939
1418.2520,0.025216
1420.1157,0.025735
1421.9794,0.025947
1423.8431,0.025894
1425.7067,0.025278
1427.5704,0.024563
1429.4341,0.024047
1431.2977,0.023594
1433.1614,0.023412
1435.0251,0.023591
1436.8887,0.023913
1438.7524,0.023860
1440.6161,0.023814
1442.4797,0.023873
1444.3434,0.023897
1446.2071,0.024035
1448.0707,0.024132
1449.9344,0.023838
1451.7981,0.023394
1453.6618,0.023104
1455.5254,0.023122
1457.3891,0.023402
1459.2528,0.023328
1461.1164,0.023190
1462.9801,0.023149
1464.8438,0.023094
1466.7074,0.022786
1468.5711,0.022411
1470.4348,0.022276
1472.2984,0.022272
1474.1621,0.022035
1476.0258,0.021733
1477.8895,0.021607
1479.7531,0.021625
1481.6168,0.021605
1483.4805,0.021423
1485.3441,0.021246
1487.2078,0.021151
1489.0715,0.021098
1490.9351,0.021003
1492.7988,0.020788
1494.6625,0.020717
1496.5261,0.020898
1498.3898,0.020993
1500.2535,0.020869
1502.1171,0.020605
1503.9808,0.020377
1505.8445,0.020544
1507.7082,0.020967
1509.5718,0.020921
1511.4355,0.020906
1513.2992,0.020870
1515.1628,0.020830
1517.0265,0.020790
1518.8902,0.020617
1520.7538,0.020647
1522.6175,0.020717
1524.4812,0.020698
1526.3448,0.020889
1528.2085,0.020973
1530.0722,0.020823
1531.9359,0.020734
1533.7995,0.020814
1535.6632,0.020670
1537.5269,0.020661
1539.3905,0.021191
1541.2542,0.021361
1543.1179,0.021119
1544.9815,0.021345
1546.8452,0.021542
1548.7089,0.021643
1550.5725,0.021772
1552.4362,0.021878
1554.2999,0.021971
1556.1635,0.022131
1558.0272,0.022675
1559.8909,0.023226
1561.7546,0.022918
1563.6182,0.023162
1565.4819,0.023426
1567.3456,0.023428
1569.2092,0.023755
1571.0729,0.024005
1572.9366,0.023911
1574.8002,0.024201
1576.6639,0.024771
1578.5276,0.024923
1580.3912,0.025133
1582.2549,0.025406
1584.1186,0.025522
1585.9822,0.025780
1587.8459,0.025938
1589.7096,0.025937
1591.5733,0.026009
1593.4369,0.026127
1595.3006,0.026146
1597.1643,0.026104
1599.0279,0.026127
1600.8916,0.026237
1602.7553,0.026196
1604.6189,0.025944
1606.4826,0.025806
1608.3463,0.025765
1610.2099,0.025630
1612.0736,0.025610
1613.9373,0.025472
1615.8010,0.025167
1617.6646,0.024701
1619.5283,0.024127
1621.3920,0.023915
1623.2556,0.023680
1625.1193,0.023268
1626.9830,0.022964
1628.8466,0.022440
1630.7103,0.021701
1632.5740,0.021263
1634.4376,0.020967
1636.3013,0.020180
1638.1650,0.019362
1640.0286,0.019280
1641.8923,0.019285
1643.7560,0.019097
1645.6197,0.019108
1647.4833,0.019272
1649.3470,0.019083
1651.2107,0.019241
1653.0743,0.019851
1654.9380,0.020007
1656.8017,0.019886
1658.6653,0.019991
1660.5290,0.020187
1662.3927,0.020276
1664.2563,0.020123
1666.1200,0.020057
1667.9837,0.020146
1669.8474,0.020009
1671.7110,0.019830
1673.5747,0.019983
1675.4384,0.020216
1677.3020,0.020288
1679.1657,0.020304
1681.0294,0.020323
1682.8930,0.020485
1684.7567,0.020937
1686.6204,0.020756
1688.4840,0.020682
1690.3477,0.020603
1692.2114,0.020226
1694.0750,0.019961
1695.9387,0.019630
1697.8024,0.019006
1699.6661,0.018863
1701.5297,0.018161
1703.3934,0.017648
1705.2571,0.017465
1707.1207,0.016761
1708.9844,0.016029
1710.8481,0.015436
1712.7117,0.015080
1714.5754,0.014970
1716.4391,0.014784
1718.3027,0.014481
1720.1664,0.014061
1722.0301,0.013809
1723.8937,0.013711
1725.7574,0.013530
1727.6211,0.013351
1729.4848,0.013254
1731.3484,0.013184
1733.2121,0.013219
1735.0758,0.012828
1736.9394,0.012432
1738.8031,0.012552
1740.6668,0.012594
1742.5304,0.012504
1744.3941,0.012415
1746.2578,0.012384
1748.1214,0.012427
1749.9851,0.012291
1751.8488,0.012174
1753.7125,0.012230
1755.5761,0.012324
1757.4398,0.012286
1759.3035,0.012246
1761.1671,0.012404
1763.0308,0.012445
1764.8945,0.012321
1766.7581,0.012132
1768.6218,0.011879
1770.4855,0.011873
1772.3491,0.011956
1774.2128,0.011877
1776.0765,0.011812
1777.9401,0.011855
1779.8038,0.011978
1781.6675,0.012121
1783.5312,0.012202
1785.3948,0.012192
1787.2585,0.011979
1789.1222,0.012013
1790.9858,0.012269
1792.8495,0.012269
1794.7132,0.011879
1796.5768,0.011836
1798.4405,0.012144
1800.3042,0.012384
1802.1678,0.012384
1804.0315,0.012378
1805.8952,0.012486
1807.7589,0.012512
1809.6225,0.012505
1811.4862,0.012513
1813.3499,0.012338
1815.2135,0.012195
1817.0772,0.012253
1818.9409,0.012357
1820.8045,0.012532
1822.6682,0.012746
1824.5319,0.012555
1826.3955,0.012146
1828.2592,0.012192
1830.1229,0.012307
1831.9865,0.012091
1833.8502,0.011962
1835.7139,0.011842
1837.5776,0.011860
1839.4412,0.011779
1841.3049,0.011713
1843.1686,0.011732
1845.0322,0.011527
1846.8959,0.011337
1848.7596,0.011428
1850.6232,0.011424
1852.4869,0.011352
1854.3506,0.011531
1856.2142,0.011597
1858.0779,0.011336
1859.9416,0.011514
1861.8052,0.011691
1863.6689,0.011481
1865.5326,0.011474
1867.3963,0.011421
1869.2599,0.011028
1871.1236,0.010779
1872.9873,0.011036
1874.8509,0.011137
1876.7146,0.011002
1878.5783,0.010858
1880.4419,0.010859
1882.3056,0.010865
1884.1693,0.010910
1886.0329,0.010939
1887.8966,0.011067
1889.7603,0.010968
1891.6240,0.010613
1893.4876,0.010496
1895.3513,0.010400
1897.2150,0.010157
1899.0786,0.010187
1900.9423,0.010443
1902.8060,0.010314
1904.6696,0.010118
1906.5333,0.010271
1908.3970,0.010376
1910.2606,0.010439
1912.1243,0.010412
1913.9880,0.010147
1915.8516,0.009960
1917.7153,0.010015
1919.5790,0.009774
1921.4427,0.009389
1923.3063,0.009241
1925.1700,0.009077
1927.0337,0.009131
1928.8973,0.009536
1930.7610,0.009784
1932.6247,0.008992
1934.4883,0.008665
1936.3520,0.008548
1938.2157,0.007955
1940.0793,0.007961
1941.9430,0.008720
1943.8067,0.008599
1945.6704,0.007080
1947.5340,0.006284
1949.3977,0.006782
1951.2614,0.006976
1953.1250,0.006573
1954.9887,0.005948
1956.8524,0.006166
1958.7160,0.006036
1960.5797,0.005336
1962.4434,0.005208
1964.3070,0.004814
1966.1707,0.003735
1968.0344,0.002967
1969.8980,0.003265
1971.7617,0.003493
1973.6254,0.003528
1975.4891,0.002553
1977.3527,0.000608
1979.2164,0.001668
1981.0801,0.003066
1982.9437,0.003667
1984.8074,0.004258
1986.6711,0.004124
1988.5347,0.003557
1990.3984,0.003963
1992.2621,0.004283
1994.1257,0.003845
1995.9894,0.003544
1997.8531,0.003998
1999.7167,0.003610
2001.5804,0.003831
2003.4441,0.004771
2005.3078,0.004296
2007.1714,0.002817
2009.0351,0.001537
2010.8988,0.001052
2012.7624,0.002149
2014.6261,0.002536
2016.4898,0.001467
2018.3534,0.000518
2020.2171,0.001123
2022.0808,0.001622
2023.9444,0.001163
2025.8081,0.001384
2027.6718,0.001746
2029.5355,0.001328
2031.3991,0.001286
2033.2628,0.001473
2035.1265,0.002237
2036.9901,0.001659
2038.8538,0.000708
2040.7175,0.001649
2042.5811,0.003215
2044.4448,0.004314
2046.3085,0.004442
2048.1721,0.004246
2050.0358,0.005836
2051.8995,0.006699
2053.7631,0.006211
2055.6268,0.006108
2057.4905,0.006392
2059.3542,0.006656
2061.2178,0.006906
2063.0815,0.007193
2064.9452,0.007071
2066.8088,0.007437
2068.6725,0.008066
2070.5362,0.007922
2072.3998,0.007691
2074.2635,0.007924
2076.1272,0.008340
2077.9908,0.008149
2079.8545,0.007935
2081.7182,0.008034
2083.5819,0.008524
2085.4455,0.009087
2087.3092,0.009431
2089.1729,0.009611
2091.0365,0.009571
2092.9002,0.009280
2094.7639,0.008844
2096.6275,0.009067
2098.4912,0.009152
2100.3549,0.008832
2102.2185,0.008862
2104.0822,0.009235
2105.9459,0.009920
2107.8095,0.010002
2109.6732,0.009418
2111.5369,0.009114
2113.4006,0.009359
2115.2642,0.009307
2117.1279,0.008968
2118.9916,0.009150
2120.8552,0.009560
2122.7189,0.009461
2124.5826,0.009370
2126.4462,0.009415
2128.3099,0.009223
2130.1736,0.008157
2132.0372,0.007450
2133.9009,0.007173
2135.7646,0.006825
2137.6282,0.006738
2139.4919,0.006081
2141.3556,0.005623
2143.2193,0.006372
2145.0829,0.006133
2146.9466,0.004557
2148.8103,0.003178
2150.6739,0.003654
2152.5376,0.004431
2154.4013,0.003364
2156.2649,0.002010
2158.1286,0.000648
2159.9923,0.001177
2161.8559,0.002709
2163.7196,0.002389
2165.5833,0.003333
2167.4470,0.005065
2169.3106,0.005160
2171.1743,0.003871
2173.0380,0.003585
2174.9016,0.003823
2176.7653,0.004072
2178.6290,0.003972
2180.4926,0.004943
2182.3563,0.005660
2184.2200,0.005064
2186.0836,0.005616
2187.9473,0.006137
2189.8110,0.005529
2191.6746,0.005548
2193.5383,0.006617
2195.4020,0.006644
2197.2657,0.006329
2199.1293,0.006822
2200.9930,0.007003
2202.8567,0.007691
2204.7203,0.007993
2206.5840,0.007270
2208.4477,0.007346
2210.3113,0.007688
2212.1750,0.007586
2214.0387,0.008330
2215.9023,0.008695
2217.7660,0.008976
2219.6297,0.009181
2221.4934,0.009578
2223.3570,0.009648
2225.2207,0.009016
2227.0844,0.008485
2228.9480,0.008259
2230.8117,0.008145
2232.6754,0.008850
2234.5390,0.009074
2236.4027,0.009160
2238.2664,0.009703
2240.1300,0.009989
2241.9937,0.009975
2243.8574,0.010248
2245.7210,0.010354
2247.5847,0.010614
2249.4484,0.010943
2251.3121,0.010365
2253.1757,0.010245
2255.0394,0.010331
2256.9031,0.010472
2258.7667,0.010576
2260.6304,0.010538
2262.4941,0.010607
2264.3577,0.010468
2266.2214,0.011038
2268.0851,0.011576
2269.9487,0.011458
2271.8124,0.011517
2273.6761,0.011984
2275.5397,0.012053
2277.4034,0.012027
2279.2671,0.011871
2281.1308,0.011457
2282.9944,0.011883
2284.8581,0.012673
2286.7218,0.012846
2288.5854,0.012711
2290.4491,0.012463
2292.3128,0.012770
2294.1764,0.013185
2296.0401,0.012972
2297.9038,0.013073
2299.7674,0.013222
2301.6311,0.012847
2303.4948,0.012899
2305.3585,0.013247
2307.2221,0.013251
2309.0858,0.013176
2310.9495,0.013288
2312.8131,0.013641
2314.6768,0.013630
2316.5405,0.013478
2318.4041,0.013672
2320.2678,0.013794
2322.1315,0.013817
2323.9951,0.014097
2325.8588,0.014179
2327.7225,0.013833
2329.5861,0.013252
2331.4498,0.012662
2333.3135,0.012905
2335.1772,0.013422
2337.0408,0.013454
2338.9045,0.013481
2340.7682,0.013364
2342.6318,0.013472
2344.4955,0.013331
2346.3592,0.013117
2348.2228,0.013140
2350.0865,0.013492
2351.9502,0.013716
2353.8138,0.013413
2355.6775,0.013220
2357.5412,0.013140
2359.4049,0.012735
2361.2685,0.012687
2363.1322,0.013140
2364.9959,0.013023
2366.8595,0.012445
2368.7232,0.012776
2370.5869,0.013350
2372.4505,0.013116
2374.3142,0.012888
2376.1779,0.013251
2378.0415,0.013375
2379.9052,0.013322
2381.7689,0.013420
2383.6325,0.013720
2385.4962,0.013677
2387.3599,0.013402
2389.2236,0.013347
2391.0872,0.013299
2392.9509,0.013208
2394.8146,0.013392
2396.6782,0.013777
2398.5419,0.013840
2400.4056,0.013610
2402.2692,0.013431
2404.1329,0.013588
2405.9966,0.013446
2407.8602,0.013284
2409.7239,0.013487
2411.5876,0.013600
2413.4512,0.013758
2415.3149,0.013951
2417.1786,0.013696
2419.0423,0.013534
2420.9059,0.014009
2422.7696,0.013987
2424.6333,0.013832
2426.4969,0.013876
2428.3606,0.013899
2430.2243,0.014064
2432.0879,0.014005
2433.9516,0.013741
2435.8153,0.014050
2437.6789,0.014190
2439.5426,0.014131
2441.4063,0.014296
2443.2700,0.014070
2445.1336,0.014077
2446.9973,0.014242
2448.8610,0.014207
2450.7246,0.014018
2452.5883,0.013904
2454.4520,0.014213
2456.3156,0.014058
2458.1793,0.014010
2460.0430,0.014340
2461.9066,0.014191
2463.7703,0.014046
2465.6340,0.014040
2467.4976,0.014095
2469.3613,0.013968
2471.2250,0.013642
2473.0887,0.013759
2474.9523,0.014034
2476.8160,0.014122
2478.6797,0.014048
2480.5433,0.014079
2482.4070,0.013978
2484.2707,0.014056
2486.1343,0.014139
2487.9980,0.014296
2489.8617,0.014609
2491.7253,0.014350
2493.5890,0.014033
2495.4527,0.014363
2497.3164,0.014344
2499.1800,0.014212
2501.0437,0.014663
2502.9074,0.014689
2504.7710,0.014602
2506.6347,0.014702
2508.4984,0.014666
2510.3620,0.014309
2512.2257,0.014233
2514.0894,0.014733
2515.9530,0.015012
2517.8167,0.014512
2519.6804,0.014076
2521.5440,0.014302
2523.4077,0.014853
2525.2714,0.015015
2527.1351,0.014623
