Wavenumber,Intensity
650.4205,0.212562
652.2841,0.238152
654.1478,0.270914
656.0115,0.305916
657.8751,0.343913
659.7388,0.383067
661.6025,0.427406
663.4661,0.465521
665.3298,0.493468
667.1935,0.508354
669.0571,0.487270
670.9208,0.436893
672.7845,0.391707
674.6481,0.349316
676.5118,0.318136
678.3755,0.294431
680.2392,0.275184
682.1028,0.254355
683.9665,0.230561
685.8302,0.204810
687.6938,0.182099
689.5575,0.162415
691.4212,0.145338
693.2848,0.129870
695.1485,0.116108
697.0122,0.105316
698.8758,0.098691
700.7395,0.094430
702.6032,0.091055
704.4669,0.089039
706.3305,0.087903
708.1942,0.085993
710.0579,0.083960
711.9215,0.082563
713.7852,0.081488
715.6489,0.080416
717.5125,0.079877
719.3762,0.079384
721.2399,0.078621
723.1035,0.078092
724.9672,0.078473
726.8309,0.079215
728.6945,0.080012
730.5582,0.080384
732.4219,0.080722
734.2856,0.081400
736.1492,0.082605
738.0129,0.084310
739.8766,0.085723
741.7402,0.087776
743.6039,0.090566
745.4676,0.092842
747.3312,0.094877
749.1949,0.096521
751.0586,0.097345
752.9222,0.098253
754.7859,0.100063
756.6496,0.102136
758.5132,0.104272
760.3769,0.106541
762.2406,0.108816
764.1043,0.110674
765.9679,0.112522
767.8316,0.114451
769.6953,0.116190
771.5589,0.117731
773.4226,0.120311
775.2863,0.123271
777.1499,0.126249
779.0136,0.129742
780.8773,0.132551
782.7409,0.132841
784.6046,0.132738
786.4683,0.134270
788.3320,0.136477
790.1956,0.137283
792.0593,0.137657
793.9230,0.138910
795.7866,0.140975
797.6503,0.143458
799.5140,0.146274
801.3776,0.148574
803.2413,0.151229
805.1050,0.154029
806.9686,0.156637
808.8323,0.159401
810.6960,0.162265
812.5596,0.165402
814.4233,0.169114
816.2870,0.172380
818.1507,0.175884
820.0143,0.179803
821.8780,0.183739
823.7417,0.187412
825.6053,0.191741
827.4690,0.196635
829.3327,0.201502
831.1963,0.205476
833.0600,0.208982
834.9237,0.212574
836.7873,0.217143
838.6510,0.221892
840.5147,0.226619
842.3784,0.231597
844.2420,0.237148
846.1057,0.242586
847.9694,0.247811
849.8330,0.253350
851.6967,0.259879
853.5604,0.266649
855.4240,0.273285
857.2877,0.279012
859.1514,0.283826
861.0150,0.287770
862.8787,0.291992
864.7424,0.296324
866.6060,0.301269
868.4697,0.306601
870.3334,0.312089
872.1971,0.317724
874.0607,0.324346
875.9244,0.331195
877.7881,0.338142
879.6517,0.344684
881.5154,0.351007
883.3791,0.357136
885.2427,0.363062
887.1064,0.367849
888.9701,0.372324
890.8337,0.376336
892.6974,0.380386
894.5611,0.384864
896.4247,0.390369
898.2884,0.396115
900.1521,0.402786
902.0158,0.409694
903.8794,0.416481
905.7431,0.422808
907.6068,0.429129
909.4704,0.435501
911.3341,0.442165
913.1978,0.448533
915.0614,0.454159
916.9251,0.457812
918.7888,0.461107
920.6524,0.465124
922.5161,0.470322
924.3798,0.475925
926.2435,0.481971
928.1071,0.487812
929.9708,0.493992
931.8345,0.500431
933.6981,0.507267
935.5618,0.513070
937.4255,0.517362
939.2891,0.520297
941.1528,0.523607
943.0165,0.527213
944.8801,0.531785
946.7438,0.536750
948.6075,0.541742
950.4711,0.546690
952.3348,0.552803
954.1985,0.559024
956.0622,0.564841
957.9258,0.569787
959.7895,0.574135
961.6532,0.578084
963.5168,0.582760
965.3805,0.587559
967.2442,0.592941
969.1078,0.598430
970.9715,0.604038
972.8352,0.609366
974.6988,0.615117
976.5625,0.621011
978.4262,0.627638
980.2899,0.633650
982.1535,0.636104
984.0172,0.633331
985.8809,0.629927
987.7445,0.628651
989.6082,0.629058
991.4719,0.629324
993.3355,0.629083
995.1992,0.628011
997.0629,0.627133
998.9265,0.625261
1000.7902,0.621440
1002.6539,0.614890
1004.5175,0.606652
1006.3812,0.596914
1008.2449,0.583785
1010.1086,0.564730
1011.9722,0.540310
1013.8359,0.511423
1015.6996,0.480111
1017.5632,0.448379
1019.4269,0.417606
1021.2906,0.388067
1023.1542,0.360662
1025.0179,0.336118
1026.8816,0.314427
1028.7452,0.294491
1030.6089,0.275697
1032.4726,0.257636
1034.3362,0.240543
1036.1999,0.224533
1038.0636,0.209769
1039.9273,0.196371
1041.7909,0.184239
1043.6546,0.173189
1045.5183,0.163540
1047.3819,0.155518
1049.2456,0.149250
1051.1093,0.144885
1052.9729,0.142760
1054.8366,0.142635
1056.7003,0.143247
1058.5639,0.143298
1060.4276,0.142873
1062.2913,0.142145
1064.1550,0.141031
1066.0186,0.139776
1067.8823,0.138684
1069.7460,0.137542
1071.6096,0.136448
1073.4733,0.135108
1075.3370,0.133301
1077.2006,0.131267
1079.0643,0.129053
1080.9280,0.126685
1082.7916,0.124332
1084.6553,0.121928
1086.5190,0.119658
1088.3826,0.117669
1090.2463,0.115944
1092.1100,0.114506
1093.9737,0.113098
1095.8373,0.111414
1097.7010,0.109602
1099.5647,0.107926
1101.4283,0.106421
1103.2920,0.104742
1105.1557,0.102857
1107.0193,0.100923
1108.8830,0.098732
1110.7467,0.096306
1112.6103,0.093960
1114.4740,0.091657
1116.3377,0.089511
1118.2014,0.087555
1120.0650,0.085498
1121.9287,0.083412
1123.7924,0.081449
1125.6560,0.079516
1127.5197,0.077357
1129.3834,0.074958
1131.2470,0.072624
1133.1107,0.070307
1134.9744,0.067933
1136.8380,0.065690
1138.7017,0.063614
1140.5654,0.061408
1142.4290,0.059032
1144.2927,0.056676
1146.1564,0.054383
1148.0201,0.052137
1149.8837,0.050005
1151.7474,0.048151
1153.6111,0.046566
1155.4747,0.045107
1157.3384,0.043711
1159.2021,0.042310
1161.0657,0.040905
1162.9294,0.039600
1164.7931,0.038507
1166.6567,0.037585
1168.5204,0.036755
1170.3841,0.036126
1172.2477,0.035637
1174.1114,0.035080
1175.9751,0.034566
1177.8388,0.034195
1179.7024,0.033982
1181.5661,0.033861
1183.4298,0.033729
1185.2934,0.033715
1187.1571,0.033848
1189.0208,0.034049
1190.8844,0.034259
1192.7481,0.034341
1194.6118,0.034371
1196.4754,0.034466
1198.3391,0.034598
1200.2028,0.034784
1202.0665,0.034950
1203.9301,0.035027
1205.7938,0.035150
1207.6575,0.035442
1209.5211,0.035792
1211.3848,0.035984
1213.2485,0.035943
1215.1121,0.035885
1216.9758,0.035939
1218.8395,0.035991
1220.7031,0.035968
1222.5668,0.035900
1224.4305,0.035813
1226.2941,0.035680
1228.1578,0.035509
1230.0215,0.035350
1231.8852,0.035226
1233.7488,0.035119
1235.6125,0.034997
1237.4762,0.034844
1239.3398,0.034717
1241.2035,0.034647
1243.0672,0.034488
1244.9308,0.034218
1246.7945,0.034013
1248.6582,0.033958
1250.5218,0.033945
1252.3855,0.033801
1254.2492,0.033605
1256.1129,0.033388
1257.9765,0.033156
1259.8402,0.033013
1261.7039,0.032988
1263.5675,0.033073
1265.4312,0.033178
1267.2949,0.033275
1269.1585,0.033348
1271.0222,0.033443
1272.8859,0.033610
1274.7495,0.033736
1276.6132,0.033915
1278.4769,0.034199
1280.3405,0.034429
1282.2042,0.034709
1284.0679,0.035107
1285.9316,0.035479
1287.7952,0.035755
1289.6589,0.036047
1291.5226,0.036570
1293.3862,0.037040
1295.2499,0.037340
1297.1136,0.037802
1298.9772,0.038297
1300.8409,0.038797
1302.7046,0.039429
1304.5682,0.039872
1306.4319,0.039945
1308.2956,0.039643
1310.1592,0.038953
1312.0229,0.038290
1313.8866,0.038027
1315.7503,0.038111
1317.6139,0.038506
1319.4776,0.039069
1321.3413,0.039496
1323.2049,0.039895
1325.0686,0.040378
1326.9323,0.040882
1328.7959,0.041407
1330.6596,0.041922
1332.5233,0.042326
1334.3869,0.042674
1336.2506,0.043067
1338.1143,0.043661
1339.9780,0.044504
1341.8416,0.044970
1343.7053,0.045113
1345.5690,0.045453
1347.4326,0.045933
1349.2963,0.046404
1351.1600,0.046715
1353.0236,0.046901
1354.8873,0.047041
1356.7510,0.047089
1358.6146,0.047042
1360.4783,0.046920
1362.3420,0.046858
1364.2056,0.046710
1366.0693,0.046382
1367.9330,0.046270
1369.7967,0.046229
1371.6603,0.046023
1373.5240,0.046009
1375.3877,0.046114
1377.2513,0.046049
1379.1150,0.046115
1380.9787,0.046269
1382.8423,0.046318
1384.7060,0.046333
1386.5697,0.046626
1388.4333,0.047065
1390.2970,0.047077
1392.1607,0.047002
1394.0244,0.047170
1395.8880,0.047206
1397.7517,0.046959
1399.6154,0.046693
1401.4790,0.046070
1403.3427,0.045623
1405.2064,0.045507
1407.0700,0.044862
1408.9337,0.043813
1410.7974,0.042920
1412.6610,0.042259
1414.5247,0.041636
1416.3884,0.041204
1418.2520,0.041572
1420.1157,0.042309
1421.9794,0.042184
1423.8431,0.041852
1425.7067,0.041205
1427.5704,0.040439
1429.4341,0.039952
1431.2977,0.039553
1433.1614,0.039209
1435.0251,0.039273
1436.8887,0.039978
1438.7524,0.040183
1440.6161,0.039925
1442.4797,0.039850
1444.3434,0.039709
1446.2071,0.039594
1448.0707,0.039627
1449.9344,0.039484
1451.7981,0.039066
1453.6618,0.038499
1455.5254,0.038339
1457.3891,0.039281
1459.2528,0.039407
1461.1164,0.038700
1462.9801,0.038353
1464.8438,0.038383
1466.7074,0.038054
1468.5711,0.037309
1470.4348,0.036705
1472.2984,0.036522
1474.1621,0.036472
1476.0258,0.036283
1477.8895,0.036073
1479.7531,0.035874
1481.6168,0.035692
1483.4805,0.035332
1485.3441,0.034902
1487.2078,0.034532
1489.0715,0.034472
1490.9351,0.034398
1492.7988,0.033808
1494.6625,0.033446
1496.5261,0.033613
1498.3898,0.033754
1500.2535,0.033454
1502.1171,0.032990
1503.9808,0.032548
1505.8445,0.032525
1507.7082,0.033056
1509.5718,0.032688
1511.4355,0.032319
1513.2992,0.032056
1515.1628,0.031835
1517.0265,0.031798
1518.8902,0.031640
1520.7538,0.031573
1522.6175,0.031540
1524.4812,0.031326
1526.3448,0.031388
1528.2085,0.031340
1530.0722,0.031103
1531.9359,0.031074
1533.7995,0.031119
1535.6632,0.030565
1537.5269,0.030087
1539.3905,0.030146
1541.2542,0.030310
1543.1179,0.030357
1544.9815,0.030603
1546.8452,0.030581
1548.7089,0.030531
1550.5725,0.030593
1552.4362,0.030451
1554.2999,0.030287
1556.1635,0.030046
1558.0272,0.030399
1559.8909,0.031846
1561.7546,0.031451
1563.6182,0.031225
1565.4819,0.031291
1567.3456,0.031327
1569.2092,0.031727
1571.0729,0.031855
1572.9366,0.031585
1574.8002,0.031848
1576.6639,0.032514
1578.5276,0.032734
1580.3912,0.032786
1582.2549,0.033023
1584.1186,0.033219
1585.9822,0.033344
1587.8459,0.033504
1589.7096,0.033678
1591.5733,0.033798
1593.4369,0.034085
1595.3006,0.034341
1597.1643,0.034273
1599.0279,0.034168
1600.8916,0.034326
1602.7553,0.034614
1604.6189,0.034761
1606.4826,0.034833
1608.3463,0.034956
1610.2099,0.034849
1612.0736,0.034405
1613.9373,0.034082
1615.8010,0.034207
1617.6646,0.034119
1619.5283,0.033452
1621.3920,0.033202
1623.2556,0.033346
1625.1193,0.033216
1626.9830,0.032935
1628.8466,0.032621
1630.7103,0.031991
1632.5740,0.031386
1634.4376,0.031087
1636.3013,0.031114
1638.1650,0.031038
1640.0286,0.030966
1641.8923,0.030828
1643.7560,0.030694
1645.6197,0.030666
1647.4833,0.030721
1649.3470,0.030270
1651.2107,0.030073
1653.0743,0.031006
1654.9380,0.031736
1656.8017,0.031238
1658.6653,0.031195
1660.5290,0.031436
1662.3927,0.031656
1664.2563,0.031508
1666.1200,0.031163
1667.9837,0.031170
1669.8474,0.031493
1671.7110,0.031205
1673.5747,0.030981
1675.4384,0.031176
1677.3020,0.030887
1679.1657,0.030431
1681.0294,0.030210
1682.8930,0.030228
1684.7567,0.030737
1686.6204,0.030444
1688.4840,0.030139
1690.3477,0.029941
1692.2114,0.029531
1694.0750,0.029119
1695.9387,0.028652
1697.8024,0.028156
1699.6661,0.028226
1701.5297,0.028195
1703.3934,0.027518
1705.2571,0.027345
1707.1207,0.027146
1708.9844,0.026644
1710.8481,0.026168
1712.7117,0.025669
1714.5754,0.025233
1716.4391,0.025003
1718.3027,0.025019
1720.1664,0.024662
1722.0301,0.024471
1723.8937,0.024574
1725.7574,0.024424
1727.6211,0.024091
1729.4848,0.023879
1731.3484,0.023703
1733.2121,0.023750
1735.0758,0.023872
1736.9394,0.023497
1738.8031,0.023437
1740.6668,0.023531
1742.5304,0.023470
1744.3941,0.023446
1746.2578,0.023351
1748.1214,0.023293
1749.9851,0.023439
1751.8488,0.023562
1753.7125,0.023294
1755.5761,0.023025
1757.4398,0.023099
1759.3035,0.023187
1761.1671,0.023313
1763.0308,0.023450
1764.8945,0.023270
1766.7581,0.023136
1768.6218,0.023047
1770.4855,0.022774
1772.3491,0.022629
1774.2128,0.022739
1776.0765,0.022718
1777.9401,0.022749
1779.8038,0.022889
1781.6675,0.022992
1783.5312,0.023062
1785.3948,0.023140
1787.2585,0.023065
1789.1222,0.023023
1790.9858,0.023192
1792.8495,0.023332
1794.7132,0.023141
1796.5768,0.023180
1798.4405,0.023426
1800.3042,0.023592
1802.1678,0.023563
1804.0315,0.023502
1805.8952,0.023755
1807.7589,0.023859
1809.6225,0.023791
1811.4862,0.023815
1813.3499,0.023733
1815.2135,0.023785
1817.0772,0.023977
1818.9409,0.024087
1820.8045,0.023777
1822.6682,0.023464
1824.5319,0.023618
1826.3955,0.023762
1828.2592,0.023619
1830.1229,0.023478
1831.9865,0.023165
1833.8502,0.022976
1835.7139,0.022903
1837.5776,0.022801
1839.4412,0.022666
1841.3049,0.022540
1843.1686,0.022306
1845.0322,0.022218
1846.8959,0.022179
1848.7596,0.022124
1850.6232,0.022062
1852.4869,0.022134
1854.3506,0.022211
1856.2142,0.022392
1858.0779,0.022412
1859.9416,0.022266
1861.8052,0.022385
1863.6689,0.022447
1865.5326,0.022151
1867.3963,0.021911
1869.2599,0.021512
1871.1236,0.021102
1872.9873,0.021364
1874.8509,0.021624
1876.7146,0.021630
1878.5783,0.021431
1880.4419,0.021133
1882.3056,0.021088
1884.1693,0.021121
1886.0329,0.020493
1887.8966,0.019972
1889.7603,0.020007
1891.6240,0.020030
1893.4876,0.020225
1895.3513,0.020459
1897.2150,0.020585
1899.0786,0.020329
1900.9423,0.020245
1902.8060,0.020482
1904.6696,0.020250
1906.5333,0.019756
1908.3970,0.019875
1910.2606,0.020270
1912.1243,0.020089
1913.9880,0.020087
1915.8516,0.020174
1917.7153,0.019389
1919.5790,0.018604
1921.4427,0.018647
1923.3063,0.018973
1925.1700,0.018686
1927.0337,0.018312
1928.8973,0.018381
1930.7610,0.018404
1932.6247,0.017867
1934.4883,0.017242
1936.3520,0.016907
1938.2157,0.017111
1940.0793,0.017286
1941.9430,0.016623
1943.8067,0.015454
1945.6704,0.015236
1947.5340,0.015051
1949.3977,0.014498
1951.2614,0.014360
1953.1250,0.013663
1954.9887,0.012640
1956.8524,0.012462
1958.7160,0.011513
1960.5797,0.010895
1962.4434,0.010662
1964.3070,0.009547
1966.1707,0.008463
1968.0344,0.007781
1969.8980,0.006430
1971.7617,0.006358
1973.6254,0.006795
1975.4891,0.005975
1977.3527,0.004762
1979.2164,0.005027
1981.0801,0.006028
1982.9437,0.006316
1984.8074,0.006549
1986.6711,0.008344
1988.5347,0.009377
1990.3984,0.008795
1992.2621,0.008476
1994.1257,0.008536
1995.9894,0.008124
1997.8531,0.008294
1999.7167,0.008723
2001.5804,0.008713
2003.4441,0.008152
2005.3078,0.007327
2007.1714,0.006018
2009.0351,0.005519
2010.8988,0.004898
2012.7624,0.004675
2014.6261,0.005397
2016.4898,0.004660
2018.3534,0.003167
2020.2171,0.004395
2022.0808,0.005404
2023.9444,0.003995
2025.8081,0.002710
2027.6718,0.003765
2029.5355,0.002757
2031.3991,0.001916
2033.2628,0.002938
2035.1265,0.004026
2036.9901,0.005421
2038.8538,0.005593
2040.7175,0.006295
2042.5811,0.008064
2044.4448,0.008427
2046.3085,0.008065
2048.1721,0.008542
2050.0358,0.010714
2051.8995,0.012210
2053.7631,0.012344
2055.6268,0.012216
2057.4905,0.012627
2059.3542,0.013165
2061.2178,0.013886
2063.0815,0.014245
2064.9452,0.013959
2066.8088,0.013937
2068.6725,0.014531
2070.5362,0.015341
2072.3998,0.015457
2074.2635,0.015448
2076.1272,0.015921
2077.9908,0.016363
2079.8545,0.016493
2081.7182,0.016416
2083.5819,0.016749
2085.4455,0.017347
2087.3092,0.017765
2089.1729,0.017549
2091.0365,0.017585
2092.9002,0.017140
2094.7639,0.016623
2096.6275,0.017240
2098.4912,0.017477
2100.3549,0.017158
2102.2185,0.017114
2104.0822,0.017300
2105.9459,0.017438
2107.8095,0.017755
2109.6732,0.017730
2111.5369,0.017647
2113.4006,0.017802
2115.2642,0.017931
2117.1279,0.017987
2118.9916,0.017745
2120.8552,0.017999
2122.7189,0.017683
2124.5826,0.016719
2126.4462,0.015906
2128.3099,0.015266
2130.1736,0.015413
2132.0372,0.015247
2133.9009,0.014729
2135.7646,0.013659
2137.6282,0.012922
2139.4919,0.012500
2141.3556,0.012103
2143.2193,0.011409
2145.0829,0.010888
2146.9466,0.010443
2148.8103,0.009628
2150.6739,0.007507
2152.5376,0.005680
2154.4013,0.004852
2156.2649,0.002931
2158.1286,0.001065
2159.9923,0.001950
2161.8559,0.003842
2163.7196,0.004616
2165.5833,0.005607
2167.4470,0.006549
2169.3106,0.007795
2171.1743,0.008311
2173.0380,0.007746
2174.9016,0.006541
2176.7653,0.006734
2178.6290,0.007307
2180.4926,0.007618
2182.3563,0.009281
2184.2200,0.009946
2186.0836,0.009395
2187.9473,0.009650
2189.8110,0.011036
2191.6746,0.011427
2193.5383,0.011275
2195.4020,0.011667
2197.2657,0.011255
2199.1293,0.011446
2200.9930,0.012122
2202.8567,0.012717
2204.7203,0.013135
2206.5840,0.013044
2208.4477,0.013344
2210.3113,0.013207
2212.1750,0.013446
2214.0387,0.014199
2215.9023,0.014596
2217.7660,0.014592
2219.6297,0.014527
2221.4934,0.014600
2223.3570,0.014664
2225.2207,0.014978
2227.0844,0.015425
2228.9480,0.016192
2230.8117,0.016670
2232.6754,0.016530
2234.5390,0.016121
2236.4027,0.016605
2238.2664,0.016482
2240.1300,0.016748
2241.9937,0.017677
2243.8574,0.018191
2245.7210,0.018200
2247.5847,0.017200
2249.4484,0.017023
2251.3121,0.018309
2253.1757,0.018954
2255.0394,0.019236
2256.9031,0.019302
2258.7667,0.019489
2260.6304,0.019822
2262.4941,0.019225
2264.3577,0.019386
2266.2214,0.020017
2268.0851,0.020129
2269.9487,0.020418
2271.8124,0.021082
2273.6761,0.021541
2275.5397,0.021604
2277.4034,0.021620
2279.2671,0.022016
2281.1308,0.022483
2282.9944,0.022523
2284.8581,0.022584
2286.7218,0.022756
2288.5854,0.023023
2290.4491,0.023567
2292.3128,0.023582
2294.1764,0.023351
2296.0401,0.023413
2297.9038,0.023700
2299.7674,0.023950
2301.6311,0.024038
2303.4948,0.024027
2305.3585,0.024229
2307.2221,0.024173
2309.0858,0.024103
2310.9495,0.024388
2312.8131,0.024744
2314.6768,0.024644
2316.5405,0.024900
2318.4041,0.025336
2320.2678,0.025716
2322.1315,0.026015
2323.9951,0.026239
2325.8588,0.025997
2327.7225,0.025197
2329.5861,0.024976
2331.4498,0.025151
2333.3135,0.025226
2335.1772,0.025258
2337.0408,0.024787
2338.9045,0.025054
2340.7682,0.025781
2342.6318,0.025769
2344.4955,0.025818
2346.3592,0.026010
2348.2228,0.025572
2350.0865,0.025051
2351.9502,0.025035
2353.8138,0.025044
2355.6775,0.024981
2357.5412,0.025076
2359.4049,0.025117
2361.2685,0.025204
2363.1322,0.025099
2364.9959,0.025236
2366.8595,0.025318
2368.7232,0.025174
2370.5869,0.024827
2372.4505,0.024893
2374.3142,0.025059
2376.1779,0.025401
2378.0415,0.025457
2379.9052,0.025158
2381.7689,0.025095
2383.6325,0.025262
2385.4962,0.025115
2387.3599,0.024903
2389.2236,0.025099
2391.0872,0.024959
2392.9509,0.024658
2394.8146,0.024767
2396.6782,0.024965
2398.5419,0.024810
2400.4056,0.025045
2402.2692,0.025484
2404.1329,0.025159
2405.9966,0.024857
2407.8602,0.024924
2409.7239,0.025165
2411.5876,0.025192
2413.4512,0.025145
2415.3149,0.025148
2417.1786,0.025285
2419.0423,0.025179
2420.9059,0.024921
2422.7696,0.024973
2424.6333,0.025310
2426.4969,0.025446
2428.3606,0.025437
2430.2243,0.025208
2432.0879,0.024840
2433.9516,0.024843
2435.8153,0.025109
2437.6789,0.025094
2439.5426,0.025086
2441.4063,0.024983
2443.2700,0.025114
2445.1336,0.025425
2446.9973,0.025548
2448.8610,0.025470
2450.7246,0.025811
2452.5883,0.025677
2454.4520,0.025292
2456.3156,0.025152
2458.1793,0.025471
2460.0430,0.025643
2461.9066,0.025567
2463.7703,0.025512
2465.6340,0.025818
2467.4976,0.026153
2469.3613,0.026042
2471.2250,0.025664
2473.0887,0.025481
2474.9523,0.025540
2476.8160,0.025622
2478.6797,0.025953
2480.5433,0.026118
2482.4070,0.025870
2484.2707,0.025615
2486.1343,0.025833
2487.9980,0.026362
2489.8617,0.026120
2491.7253,0.025946
2493.5890,0.026296
2495.4527,0.026561
2497.3164,0.026330
2499.1800,0.026163
2501.0437,0.026095
2502.9074,0.025983
2504.7710,0.026367
2506.6347,0.026451
2508.4984,0.026223
2510.3620,0.026301
2512.2257,0.026370
2514.0894,0.026493
2515.9530,0.026443
2517.8167,0.026503
2519.6804,0.026802
2521.5440,0.026752
2523.4077,0.026649
2525.2714,0.026701
2527.1351,0.026428
