Wavenumber,Intensity
650.4205,0.098112
652.2841,0.102875
654.1478,0.107550
656.0115,0.110998
657.8751,0.117399
659.7388,0.125292
661.6025,0.133407
663.4661,0.141293
665.3298,0.146101
667.1935,0.152802
669.0571,0.155610
670.9208,0.146757
672.7845,0.138221
674.6481,0.129359
676.5118,0.122118
678.3755,0.118243
680.2392,0.117746
682.1028,0.116157
683.9665,0.113461
685.8302,0.109753
687.6938,0.106806
689.5575,0.106195
691.4212,0.106787
693.2848,0.104671
695.1485,0.102083
697.0122,0.100948
698.8758,0.101649
700.7395,0.102612
702.6032,0.103329
704.4669,0.104222
706.3305,0.105753
708.1942,0.105296
710.0579,0.103869
711.9215,0.104133
713.7852,0.105986
715.6489,0.107858
717.5125,0.109851
719.3762,0.112731
721.2399,0.116650
723.1035,0.121554
724.9672,0.128349
726.8309,0.135147
728.6945,0.140126
730.5582,0.145297
732.4219,0.152281
734.2856,0.154418
736.1492,0.146928
738.0129,0.132896
739.8766,0.119653
741.7402,0.108653
743.6039,0.097069
745.4676,0.083161
747.3312,0.069179
749.1949,0.058502
751.0586,0.052477
752.9222,0.049917
754.7859,0.049089
756.6496,0.048869
758.5132,0.048684
760.3769,0.048809
762.2406,0.049718
764.1043,0.050488
765.9679,0.050492
767.8316,0.050062
769.6953,0.050163
771.5589,0.050756
773.4226,0.051448
775.2863,0.052026
777.1499,0.052637
779.0136,0.053461
780.8773,0.054641
782.7409,0.055650
784.6046,0.056802
786.4683,0.058010
788.3320,0.059039
790.1956,0.059709
792.0593,0.060538
793.9230,0.061409
795.7866,0.062416
797.6503,0.063397
799.5140,0.064113
801.3776,0.065078
803.2413,0.066269
805.1050,0.066752
806.9686,0.066804
808.8323,0.066686
810.6960,0.066831
812.5596,0.067086
814.4233,0.067021
816.2870,0.066583
818.1507,0.066316
820.0143,0.066553
821.8780,0.067017
823.7417,0.067540
825.6053,0.068386
827.4690,0.070101
829.3327,0.071703
831.1963,0.071677
833.0600,0.070311
834.9237,0.069168
836.7873,0.069497
838.6510,0.071086
840.5147,0.073676
842.3784,0.077805
844.2420,0.084314
846.1057,0.091633
847.9694,0.091371
849.8330,0.081897
851.6967,0.074113
853.5604,0.072499
855.4240,0.074037
857.2877,0.075976
859.1514,0.076901
861.0150,0.076966
862.8787,0.076885
864.7424,0.077379
866.6060,0.078276
868.4697,0.078947
870.3334,0.079756
872.1971,0.081068
874.0607,0.082934
875.9244,0.085005
877.7881,0.087408
879.6517,0.090434
881.5154,0.093971
883.3791,0.098207
885.2427,0.103864
887.1064,0.111178
888.9701,0.119800
890.8337,0.127325
892.6974,0.128267
894.5611,0.118503
896.4247,0.104412
898.2884,0.095708
900.1521,0.093731
902.0158,0.094924
903.8794,0.097238
905.7431,0.099818
907.6068,0.102339
909.4704,0.104979
911.3341,0.108121
913.1978,0.111404
915.0614,0.113482
916.9251,0.112722
918.7888,0.110167
920.6524,0.108633
922.5161,0.108915
924.3798,0.110333
926.2435,0.112302
928.1071,0.114449
929.9708,0.116830
931.8345,0.119331
933.6981,0.121990
935.5618,0.124566
937.4255,0.126362
939.2891,0.127459
941.1528,0.128990
943.0165,0.131089
944.8801,0.133611
946.7438,0.136770
948.6075,0.140759
950.4711,0.145238
952.3348,0.150224
954.1985,0.155953
956.0622,0.162062
957.9258,0.167222
959.7895,0.169804
961.6532,0.167952
963.5168,0.162030
965.3805,0.155389
967.2442,0.151347
969.1078,0.150706
970.9715,0.152556
972.8352,0.155875
974.6988,0.160526
976.5625,0.166562
978.4262,0.174250
980.2899,0.183106
982.1535,0.188294
984.0172,0.185148
985.8809,0.179779
987.7445,0.178940
989.6082,0.181675
991.4719,0.185367
993.3355,0.189299
995.1992,0.193358
997.0629,0.197645
998.9265,0.201956
1000.7902,0.206152
1002.6539,0.210000
1004.5175,0.213906
1006.3812,0.218220
1008.2449,0.222433
1010.1086,0.225491
1011.9722,0.227002
1013.8359,0.226978
1015.6996,0.225833
1017.5632,0.223788
1019.4269,0.221274
1021.2906,0.218935
1023.1542,0.217310
1025.0179,0.216233
1026.8816,0.215830
1028.7452,0.215897
1030.6089,0.215541
1032.4726,0.214122
1034.3362,0.210015
1036.1999,0.199385
1038.0636,0.182735
1039.9273,0.166664
1041.7909,0.156600
1043.6546,0.152348
1045.5183,0.148153
1047.3819,0.139235
1049.2456,0.127484
1051.1093,0.116300
1052.9729,0.107652
1054.8366,0.102565
1056.7003,0.100587
1058.5639,0.100403
1060.4276,0.100960
1062.2913,0.101848
1064.1550,0.103085
1066.0186,0.104557
1067.8823,0.106342
1069.7460,0.108563
1071.6096,0.111090
1073.4733,0.113473
1075.3370,0.115709
1077.2006,0.117800
1079.0643,0.119673
1080.9280,0.121710
1082.7916,0.123974
1084.6553,0.126383
1086.5190,0.129168
1088.3826,0.132317
1090.2463,0.135878
1092.1100,0.139845
1093.9737,0.143975
1095.8373,0.147727
1097.7010,0.150072
1099.5647,0.150110
1101.4283,0.147878
1103.2920,0.144504
1105.1557,0.141777
1107.0193,0.140206
1108.8830,0.138064
1110.7467,0.133264
1112.6103,0.125475
1114.4740,0.116070
1116.3377,0.106913
1118.2014,0.099414
1120.0650,0.094194
1121.9287,0.091029
1123.7924,0.089438
1125.6560,0.088718
1127.5197,0.088420
1129.3834,0.088314
1131.2470,0.088453
1133.1107,0.089006
1134.9744,0.089970
1136.8380,0.091274
1138.7017,0.092803
1140.5654,0.094572
1142.4290,0.096597
1144.2927,0.098419
1146.1564,0.099798
1148.0201,0.100937
1149.8837,0.102198
1151.7474,0.103871
1153.6111,0.105877
1155.4747,0.107992
1157.3384,0.109801
1159.2021,0.110952
1161.0657,0.111693
1162.9294,0.112510
1164.7931,0.113808
1166.6567,0.115593
1168.5204,0.117524
1170.3841,0.119136
1172.2477,0.120084
1174.1114,0.119921
1175.9751,0.118588
1177.8388,0.116682
1179.7024,0.114909
1181.5661,0.113513
1183.4298,0.112415
1185.2934,0.111420
1187.1571,0.110543
1189.0208,0.109690
1190.8844,0.108498
1192.7481,0.106954
1194.6118,0.105427
1196.4754,0.104520
1198.3391,0.104576
1200.2028,0.105222
1202.0665,0.105796
1203.9301,0.105680
1205.7938,0.104576
1207.6575,0.102764
1209.5211,0.100709
1211.3848,0.098313
1213.2485,0.095384
1215.1121,0.092066
1216.9758,0.088401
1218.8395,0.084386
1220.7031,0.080107
1222.5668,0.075804
1224.4305,0.071741
1226.2941,0.067733
1228.1578,0.063633
1230.0215,0.059611
1231.8852,0.055708
1233.7488,0.051701
1235.6125,0.047641
1237.4762,0.044060
1239.3398,0.041640
1241.2035,0.040798
1243.0672,0.041421
1244.9308,0.042967
1246.7945,0.044380
1248.6582,0.044701
1250.5218,0.043413
1252.3855,0.040253
1254.2492,0.036283
1256.1129,0.033316
1257.9765,0.031858
1259.8402,0.031234
1261.7039,0.030980
1263.5675,0.031075
1265.4312,0.031166
1267.2949,0.030888
1269.1585,0.030480
1271.0222,0.030232
1272.8859,0.030074
1274.7495,0.030024
1276.6132,0.030176
1278.4769,0.030607
1280.3405,0.031325
1282.2042,0.032227
1284.0679,0.033341
1285.9316,0.034541
1287.7952,0.035517
1289.6589,0.036534
1291.5226,0.038171
1293.3862,0.040526
1295.2499,0.043945
1297.1136,0.049010
1298.9772,0.055536
1300.8409,0.062133
1302.7046,0.066027
1304.5682,0.064723
1306.4319,0.058807
1308.2956,0.050759
1310.1592,0.042584
1312.0229,0.036001
1313.8866,0.032205
1315.7503,0.030911
1317.6139,0.030788
1319.4776,0.031187
1321.3413,0.031753
1323.2049,0.032290
1325.0686,0.032919
1326.9323,0.033580
1328.7959,0.034235
1330.6596,0.034963
1332.5233,0.035615
1334.3869,0.036059
1336.2506,0.036885
1338.1143,0.039102
1339.9780,0.042741
1341.8416,0.045572
1343.7053,0.045699
1345.5690,0.042977
1347.4326,0.039260
1349.2963,0.037062
1351.1600,0.036388
1353.0236,0.036215
1354.8873,0.036290
1356.7510,0.036721
1358.6146,0.037406
1360.4783,0.038100
1362.3420,0.038592
1364.2056,0.038587
1366.0693,0.038495
1367.9330,0.039081
1369.7967,0.039977
1371.6603,0.040727
1373.5240,0.042099
1375.3877,0.043862
1377.2513,0.045175
1379.1150,0.046894
1380.9787,0.049389
1382.8423,0.052875
1384.7060,0.057911
1386.5697,0.063861
1388.4333,0.065818
1390.2970,0.061855
1392.1607,0.058455
1394.0244,0.057588
1395.8880,0.057282
1397.7517,0.056008
1399.6154,0.054401
1401.4790,0.052882
1403.3427,0.051731
1405.2064,0.050191
1407.0700,0.047151
1408.9337,0.043510
1410.7974,0.040504
1412.6610,0.038873
1414.5247,0.038832
1416.3884,0.040359
1418.2520,0.044166
1420.1157,0.049479
1421.9794,0.051561
1423.8431,0.051303
1425.7067,0.048292
1427.5704,0.043433
1429.4341,0.038710
1431.2977,0.034913
1433.1614,0.032735
1435.0251,0.032196
1436.8887,0.033187
1438.7524,0.033781
1440.6161,0.033873
1442.4797,0.034443
1444.3434,0.035217
1446.2071,0.036384
1448.0707,0.038138
1449.9344,0.039502
1451.7981,0.040360
1453.6618,0.041728
1455.5254,0.045014
1457.3891,0.050635
1459.2528,0.047476
1461.1164,0.041234
1462.9801,0.038168
1464.8438,0.037479
1466.7074,0.037088
1468.5711,0.036481
1470.4348,0.036480
1472.2984,0.037558
1474.1621,0.038431
1476.0258,0.038517
1477.8895,0.038879
1479.7531,0.039454
1481.6168,0.040660
1483.4805,0.041969
1485.3441,0.043145
1487.2078,0.045044
1489.0715,0.047904
1490.9351,0.050533
1492.7988,0.051197
1494.6625,0.052104
1496.5261,0.055503
1498.3898,0.059223
1500.2535,0.060556
1502.1171,0.060704
1503.9808,0.060446
1505.8445,0.061761
1507.7082,0.065794
1509.5718,0.064150
1511.4355,0.060883
1513.2992,0.057362
1515.1628,0.053959
1517.0265,0.050771
1518.8902,0.048267
1520.7538,0.048077
1522.6175,0.048896
1524.4812,0.048486
1526.3448,0.047558
1528.2085,0.045365
1530.0722,0.042640
1531.9359,0.040779
1533.7995,0.039681
1535.6632,0.038513
1537.5269,0.037679
1539.3905,0.038497
1541.2542,0.040613
1543.1179,0.040829
1544.9815,0.041113
1546.8452,0.041208
1548.7089,0.041307
1550.5725,0.041954
1552.4362,0.042279
1554.2999,0.042440
1556.1635,0.042961
1558.0272,0.045532
1559.8909,0.051980
1561.7546,0.050986
1563.6182,0.050613
1565.4819,0.052321
1567.3456,0.054373
1569.2092,0.057360
1571.0729,0.060443
1572.9366,0.060787
1574.8002,0.062326
1576.6639,0.066771
1578.5276,0.068670
1580.3912,0.068446
1582.2549,0.069039
1584.1186,0.069383
1585.9822,0.069075
1587.8459,0.068058
1589.7096,0.066709
1591.5733,0.065344
1593.4369,0.064531
1595.3006,0.064367
1597.1643,0.064575
1599.0279,0.065018
1600.8916,0.065823
1602.7553,0.067077
1604.6189,0.068586
1606.4826,0.070295
1608.3463,0.072482
1610.2099,0.074677
1612.0736,0.075720
1613.9373,0.074809
1615.8010,0.072527
1617.6646,0.067991
1619.5283,0.062125
1621.3920,0.057238
1623.2556,0.052629
1625.1193,0.048589
1626.9830,0.045600
1628.8466,0.042574
1630.7103,0.039414
1632.5740,0.036651
1634.4376,0.034142
1636.3013,0.031574
1638.1650,0.029880
1640.0286,0.029343
1641.8923,0.028745
1643.7560,0.028195
1645.6197,0.028038
1647.4833,0.027783
1649.3470,0.026914
1651.2107,0.026782
1653.0743,0.028185
1654.9380,0.029618
1656.8017,0.028929
1658.6653,0.028800
1660.5290,0.028869
1662.3927,0.028943
1664.2563,0.028719
1666.1200,0.028001
1667.9837,0.027335
1669.8474,0.027131
1671.7110,0.026936
1673.5747,0.026902
1675.4384,0.027533
1677.3020,0.028222
1679.1657,0.028371
1681.0294,0.028869
1682.8930,0.029961
1684.7567,0.032488
1686.6204,0.033004
1688.4840,0.032436
1690.3477,0.032262
1692.2114,0.031526
1694.0750,0.030560
1695.9387,0.029617
1697.8024,0.028511
1699.6661,0.027698
1701.5297,0.026280
1703.3934,0.024739
1705.2571,0.023121
1707.1207,0.020998
1708.9844,0.019205
1710.8481,0.017817
1712.7117,0.016585
1714.5754,0.015707
1716.4391,0.015352
1718.3027,0.015297
1720.1664,0.014888
1722.0301,0.014506
1723.8937,0.014080
1725.7574,0.013467
1727.6211,0.012813
1729.4848,0.012358
1731.3484,0.012043
1733.2121,0.011900
1735.0758,0.011679
1736.9394,0.011321
1738.8031,0.011257
1740.6668,0.011345
1742.5304,0.011192
1744.3941,0.011044
1746.2578,0.010797
1748.1214,0.010590
1749.9851,0.010565
1751.8488,0.010777
1753.7125,0.010741
1755.5761,0.010543
1757.4398,0.010449
1759.3035,0.010409
1761.1671,0.010321
1763.0308,0.010329
1764.8945,0.010273
1766.7581,0.010371
1768.6218,0.010435
1770.4855,0.010293
1772.3491,0.010211
1774.2128,0.010265
1776.0765,0.010273
1777.9401,0.010354
1779.8038,0.010333
1781.6675,0.010435
1783.5312,0.010550
1785.3948,0.010604
1787.2585,0.010490
1789.1222,0.010298
1790.9858,0.010283
1792.8495,0.010608
1794.7132,0.010727
1796.5768,0.010559
1798.4405,0.010389
1800.3042,0.010397
1802.1678,0.010574
1804.0315,0.010730
1805.8952,0.010618
1807.7589,0.010608
1809.6225,0.010767
1811.4862,0.010792
1813.3499,0.010802
1815.2135,0.010759
1817.0772,0.010456
1818.9409,0.010403
1820.8045,0.010605
1822.6682,0.010727
1824.5319,0.010615
1826.3955,0.010544
1828.2592,0.010455
1830.1229,0.010489
1831.9865,0.010303
1833.8502,0.010303
1835.7139,0.010604
1837.5776,0.010637
1839.4412,0.010320
1841.3049,0.010323
1843.1686,0.010382
1845.0322,0.010319
1846.8959,0.010263
1848.7596,0.010425
1850.6232,0.010312
1852.4869,0.010147
1854.3506,0.010235
1856.2142,0.010436
1858.0779,0.010382
1859.9416,0.010355
1861.8052,0.010519
1863.6689,0.010367
1865.5326,0.009989
1867.3963,0.010142
1869.2599,0.010334
1871.1236,0.010284
1872.9873,0.010387
1874.8509,0.010597
1876.7146,0.010427
1878.5783,0.010357
1880.4419,0.010541
1882.3056,0.010657
1884.1693,0.010375
1886.0329,0.010100
1887.8966,0.009921
1889.7603,0.010226
1891.6240,0.010544
1893.4876,0.010693
1895.3513,0.010919
1897.2150,0.010995
1899.0786,0.010858
1900.9423,0.010607
1902.8060,0.010738
1904.6696,0.011186
1906.5333,0.011370
1908.3970,0.011328
1910.2606,0.011167
1912.1243,0.010695
1913.9880,0.010350
1915.8516,0.010532
1917.7153,0.010745
1919.5790,0.010609
1921.4427,0.009943
1923.3063,0.009806
1925.1700,0.009798
1927.0337,0.009759
1928.8973,0.009858
1930.7610,0.009702
1932.6247,0.009060
1934.4883,0.009213
1936.3520,0.009430
1938.2157,0.008788
1940.0793,0.008269
1941.9430,0.008223
1943.8067,0.007415
1945.6704,0.006897
1947.5340,0.007227
1949.3977,0.007661
1951.2614,0.006857
1953.1250,0.006578
1954.9887,0.006702
1956.8524,0.006232
1958.7160,0.005551
1960.5797,0.006282
1962.4434,0.006161
1964.3070,0.004528
1966.1707,0.003413
1968.0344,0.002778
1969.8980,0.002578
1971.7617,0.002824
1973.6254,0.002010
1975.4891,0.002151
1977.3527,0.002057
1979.2164,0.003101
1981.0801,0.003952
1982.9437,0.003574
1984.8074,0.004167
1986.6711,0.004915
1988.5347,0.004328
1990.3984,0.004340
1992.2621,0.003937
1994.1257,0.003660
1995.9894,0.004024
1997.8531,0.004296
1999.7167,0.003073
2001.5804,0.003240
2003.4441,0.003884
2005.3078,0.003450
2007.1714,0.002776
2009.0351,0.002869
2010.8988,0.002127
2012.7624,0.001386
2014.6261,0.001742
2016.4898,0.002179
2018.3534,0.001640
2020.2171,0.000942
2022.0808,0.001290
2023.9444,0.001929
2025.8081,0.001505
2027.6718,0.001115
2029.5355,0.000854
2031.3991,0.001197
2033.2628,0.001594
2035.1265,0.001535
2036.9901,0.002076
2038.8538,0.003624
2040.7175,0.003919
2042.5811,0.003792
2044.4448,0.003066
2046.3085,0.003074
2048.1721,0.004128
2050.0358,0.005411
2051.8995,0.005387
2053.7631,0.005121
2055.6268,0.005334
2057.4905,0.006310
2059.3542,0.007508
2061.2178,0.007516
2063.0815,0.007120
2064.9452,0.007182
2066.8088,0.007022
2068.6725,0.007426
2070.5362,0.008232
2072.3998,0.008483
2074.2635,0.008318
2076.1272,0.008484
2077.9908,0.008300
2079.8545,0.008627
2081.7182,0.009329
2083.5819,0.009920
2085.4455,0.010182
2087.3092,0.009750
2089.1729,0.009195
2091.0365,0.009392
2092.9002,0.009305
2094.7639,0.009134
2096.6275,0.009023
2098.4912,0.008904
2100.3549,0.009013
2102.2185,0.009301
2104.0822,0.009339
2105.9459,0.009460
2107.8095,0.009229
2109.6732,0.009516
2111.5369,0.010070
2113.4006,0.009819
2115.2642,0.009435
2117.1279,0.009409
2118.9916,0.009357
2120.8552,0.009592
2122.7189,0.009449
2124.5826,0.009085
2126.4462,0.008809
2128.3099,0.009004
2130.1736,0.009154
2132.0372,0.008279
2133.9009,0.007055
2135.7646,0.006594
2137.6282,0.006101
2139.4919,0.006218
2141.3556,0.006438
2143.2193,0.005760
2145.0829,0.004304
2146.9466,0.005111
2148.8103,0.005040
2150.6739,0.003752
2152.5376,0.003868
2154.4013,0.003994
2156.2649,0.000867
2158.1286,-0.002216
2159.9923,-0.000716
2161.8559,0.001220
2163.7196,0.001303
2165.5833,0.001930
2167.4470,0.002101
2169.3106,0.002408
2171.1743,0.003549
2173.0380,0.004931
2174.9016,0.004153
2176.7653,0.003575
2178.6290,0.004491
2180.4926,0.003984
2182.3563,0.004250
2184.2200,0.004730
2186.0836,0.005881
2187.9473,0.006793
2189.8110,0.005574
2191.6746,0.005717
2193.5383,0.006550
2195.4020,0.006961
2197.2657,0.007169
2199.1293,0.007093
2200.9930,0.006621
2202.8567,0.006156
2204.7203,0.006562
2206.5840,0.007743
2208.4477,0.007491
2210.3113,0.007220
2212.1750,0.007088
2214.0387,0.007676
2215.9023,0.008264
2217.7660,0.008615
2219.6297,0.008875
2221.4934,0.008242
2223.3570,0.007254
2225.2207,0.007596
2227.0844,0.008642
2228.9480,0.008927
2230.8117,0.008125
2232.6754,0.008137
2234.5390,0.009065
2236.4027,0.009626
2238.2664,0.010287
2240.1300,0.010590
2241.9937,0.010318
2243.8574,0.010617
2245.7210,0.010780
2247.5847,0.010499
2249.4484,0.010120
2251.3121,0.010542
2253.1757,0.010977
2255.0394,0.011303
2256.9031,0.011991
2258.7667,0.012320
2260.6304,0.011561
2262.4941,0.011200
2264.3577,0.011702
2266.2214,0.012356
2268.0851,0.012354
2269.9487,0.012332
2271.8124,0.012621
2273.6761,0.012884
2275.5397,0.012643
2277.4034,0.012625
2279.2671,0.012817
2281.1308,0.013020
2282.9944,0.013465
2284.8581,0.013549
2286.7218,0.013359
2288.5854,0.013533
2290.4491,0.013924
2292.3128,0.014038
2294.1764,0.013834
2296.0401,0.013698
2297.9038,0.013997
2299.7674,0.014149
2301.6311,0.014163
2303.4948,0.014230
2305.3585,0.014165
2307.2221,0.013811
2309.0858,0.014300
2310.9495,0.014837
2312.8131,0.015199
2314.6768,0.014962
2316.5405,0.014723
2318.4041,0.014816
2320.2678,0.015224
2322.1315,0.015680
2323.9951,0.015789
2325.8588,0.015373
2327.7225,0.014950
2329.5861,0.014722
2331.4498,0.014772
2333.3135,0.014886
2335.1772,0.014953
2337.0408,0.014892
2338.9045,0.014734
2340.7682,0.014621
2342.6318,0.014884
2344.4955,0.015206
2346.3592,0.015162
2348.2228,0.014823
2350.0865,0.014723
2351.9502,0.014923
2353.8138,0.014921
2355.6775,0.014840
2357.5412,0.014790
2359.4049,0.014575
2361.2685,0.015074
2363.1322,0.015157
2364.9959,0.014765
2366.8595,0.014492
2368.7232,0.014351
2370.5869,0.014573
2372.4505,0.015076
2374.3142,0.015396
2376.1779,0.015418
2378.0415,0.015315
2379.9052,0.015312
2381.7689,0.014999
2383.6325,0.014789
2385.4962,0.014667
2387.3599,0.014606
2389.2236,0.014859
2391.0872,0.015036
2392.9509,0.015081
2394.8146,0.015133
2396.6782,0.015312
2398.5419,0.015356
2400.4056,0.015580
2402.2692,0.015757
2404.1329,0.015683
2405.9966,0.015489
2407.8602,0.015355
2409.7239,0.015728
2411.5876,0.015939
2413.4512,0.015885
2415.3149,0.015767
2417.1786,0.015643
2419.0423,0.015328
2420.9059,0.015302
2422.7696,0.015538
2424.6333,0.015674
2426.4969,0.015652
2428.3606,0.016061
2430.2243,0.016373
2432.0879,0.016076
2433.9516,0.015665
2435.8153,0.015553
2437.6789,0.015684
2439.5426,0.016087
2441.4063,0.016374
2443.2700,0.016511
2445.1336,0.016521
2446.9973,0.016459
2448.8610,0.016259
2450.7246,0.015788
2452.5883,0.016277
2454.4520,0.017050
2456.3156,0.017122
2458.1793,0.017135
2460.0430,0.017432
2461.9066,0.017463
2463.7703,0.017278
2465.6340,0.017542
2467.4976,0.017941
2469.3613,0.018161
2471.2250,0.018308
2473.0887,0.018212
2474.9523,0.018197
2476.8160,0.018217
2478.6797,0.018324
2480.5433,0.018103
2482.4070,0.017937
2484.2707,0.018272
2486.1343,0.018345
2487.9980,0.018060
2489.8617,0.017726
2491.7253,0.017910
2493.5890,0.018158
2495.4527,0.018133
2497.3164,0.018092
2499.1800,0.018188
2501.0437,0.018222
2502.9074,0.018198
2504.7710,0.018045
2506.6347,0.018186
2508.4984,0.018416
2510.3620,0.018461
2512.2257,0.018419
2514.0894,0.018500
2515.9530,0.018558
2517.8167,0.018815
2519.6804,0.018924
2521.5440,0.018738
2523.4077,0.018854
2525.2714,0.019272
2527.1351,0.019397
