Wavenumber,Intensity
650.4205,0.180355
652.2841,0.206911
654.1478,0.234298
656.0115,0.259239
657.8751,0.282608
659.7388,0.307023
661.6025,0.338123
663.4661,0.368773
665.3298,0.392607
667.1935,0.405692
669.0571,0.393288
670.9208,0.358789
672.7845,0.325820
674.6481,0.293662
676.5118,0.272224
678.3755,0.259310
680.2392,0.252678
682.1028,0.243069
683.9665,0.224188
685.8302,0.200035
687.6938,0.178966
689.5575,0.162107
691.4212,0.146898
693.2848,0.131416
695.1485,0.117854
697.0122,0.107328
698.8758,0.100748
700.7395,0.097407
702.6032,0.095844
704.4669,0.095308
706.3305,0.095013
708.1942,0.093606
710.0579,0.090943
711.9215,0.088686
713.7852,0.089044
715.6489,0.090067
717.5125,0.091837
719.3762,0.094132
721.2399,0.096674
723.1035,0.100229
724.9672,0.105851
726.8309,0.112724
728.6945,0.121304
730.5582,0.133061
732.4219,0.150029
734.2856,0.175166
736.1492,0.216001
738.0129,0.271504
739.8766,0.320021
741.7402,0.339811
743.6039,0.307222
745.4676,0.214886
747.3312,0.143152
749.1949,0.119592
751.0586,0.110805
752.9222,0.110361
754.7859,0.101684
756.6496,0.079166
758.5132,0.066928
760.3769,0.066542
762.2406,0.071346
764.1043,0.080332
765.9679,0.090486
767.8316,0.092774
769.6953,0.087040
771.5589,0.083555
773.4226,0.085870
775.2863,0.090828
777.1499,0.096616
779.0136,0.100796
780.8773,0.101588
782.7409,0.100998
784.6046,0.101052
786.4683,0.101856
788.3320,0.104031
790.1956,0.106203
792.0593,0.108147
793.9230,0.110499
795.7866,0.113926
797.6503,0.118943
799.5140,0.126090
801.3776,0.133395
803.2413,0.135896
805.1050,0.132504
806.9686,0.129090
808.8323,0.128742
810.6960,0.130417
812.5596,0.131910
814.4233,0.133047
816.2870,0.135091
818.1507,0.137803
820.0143,0.140734
821.8780,0.144303
823.7417,0.147826
825.6053,0.151798
827.4690,0.156591
829.3327,0.161963
831.1963,0.167301
833.0600,0.172357
834.9237,0.177831
836.7873,0.183803
838.6510,0.187556
840.5147,0.188869
842.3784,0.192746
844.2420,0.203832
846.1057,0.219190
847.9694,0.230982
849.8330,0.231164
851.6967,0.222176
853.5604,0.221447
855.4240,0.231502
857.2877,0.237026
859.1514,0.235221
861.0150,0.235566
862.8787,0.242063
864.7424,0.246567
866.6060,0.242049
868.4697,0.233337
870.3334,0.230005
872.1971,0.233844
874.0607,0.240983
875.9244,0.245780
877.7881,0.245413
879.6517,0.244184
881.5154,0.246699
883.3791,0.250178
885.2427,0.252241
887.1064,0.254316
888.9701,0.257784
890.8337,0.261426
892.6974,0.265092
894.5611,0.269044
896.4247,0.273311
898.2884,0.277548
900.1521,0.281868
902.0158,0.286370
903.8794,0.291208
905.7431,0.296396
907.6068,0.302435
909.4704,0.308979
911.3341,0.316313
913.1978,0.324847
915.0614,0.335364
916.9251,0.345197
918.7888,0.349879
920.6524,0.347170
922.5161,0.341709
924.3798,0.339118
926.2435,0.339457
928.1071,0.339802
929.9708,0.339310
931.8345,0.338635
933.6981,0.339848
935.5618,0.343390
937.4255,0.347906
939.2891,0.352362
941.1528,0.356818
943.0165,0.360982
944.8801,0.365448
946.7438,0.370132
948.6075,0.374694
950.4711,0.379115
952.3348,0.383810
954.1985,0.388459
956.0622,0.393672
957.9258,0.399238
959.7895,0.405050
961.6532,0.410816
963.5168,0.415793
965.3805,0.419370
967.2442,0.423539
969.1078,0.428702
970.9715,0.434613
972.8352,0.440839
974.6988,0.447606
976.5625,0.454977
978.4262,0.463020
980.2899,0.471078
982.1535,0.474902
984.0172,0.470290
985.8809,0.463740
987.7445,0.459412
989.6082,0.455840
991.4719,0.453247
993.3355,0.453217
995.1992,0.454703
997.0629,0.456483
998.9265,0.458305
1000.7902,0.460180
1002.6539,0.462185
1004.5175,0.464780
1006.3812,0.462723
1008.2449,0.451342
1010.1086,0.436277
1011.9722,0.422739
1013.8359,0.408839
1015.6996,0.393394
1017.5632,0.375867
1019.4269,0.356117
1021.2906,0.335338
1023.1542,0.314972
1025.0179,0.295410
1026.8816,0.277646
1028.7452,0.261414
1030.6089,0.246418
1032.4726,0.232688
1034.3362,0.220172
1036.1999,0.208434
1038.0636,0.197387
1039.9273,0.186975
1041.7909,0.177473
1043.6546,0.168949
1045.5183,0.161358
1047.3819,0.154685
1049.2456,0.149239
1051.1093,0.144989
1052.9729,0.141621
1054.8366,0.138745
1056.7003,0.136414
1058.5639,0.135203
1060.4276,0.134441
1062.2913,0.133047
1064.1550,0.131933
1066.0186,0.131356
1067.8823,0.129957
1069.7460,0.128453
1071.6096,0.129149
1073.4733,0.132231
1075.3370,0.134807
1077.2006,0.132964
1079.0643,0.127547
1080.9280,0.123219
1082.7916,0.121532
1084.6553,0.121697
1086.5190,0.122844
1088.3826,0.124412
1090.2463,0.126347
1092.1100,0.128750
1093.9737,0.131807
1095.8373,0.134589
1097.7010,0.135061
1099.5647,0.132276
1101.4283,0.127043
1103.2920,0.120203
1105.1557,0.112676
1107.0193,0.106666
1108.8830,0.103361
1110.7467,0.102405
1112.6103,0.102779
1114.4740,0.102969
1116.3377,0.101162
1118.2014,0.097583
1120.0650,0.093921
1121.9287,0.090797
1123.7924,0.088853
1125.6560,0.088577
1127.5197,0.089217
1129.3834,0.089620
1131.2470,0.088778
1133.1107,0.086478
1134.9744,0.084444
1136.8380,0.083841
1138.7017,0.084621
1140.5654,0.086496
1142.4290,0.087823
1144.2927,0.086608
1146.1564,0.082685
1148.0201,0.077452
1149.8837,0.073230
1151.7474,0.072420
1153.6111,0.075143
1155.4747,0.077652
1157.3384,0.075830
1159.2021,0.070291
1161.0657,0.064123
1162.9294,0.058775
1164.7931,0.054243
1166.6567,0.050961
1168.5204,0.048994
1170.3841,0.047838
1172.2477,0.047265
1174.1114,0.047084
1175.9751,0.047078
1177.8388,0.047107
1179.7024,0.047208
1181.5661,0.047415
1183.4298,0.047534
1185.2934,0.047844
1187.1571,0.048415
1189.0208,0.049055
1190.8844,0.049548
1192.7481,0.049693
1194.6118,0.049585
1196.4754,0.049720
1198.3391,0.050311
1200.2028,0.051210
1202.0665,0.052399
1203.9301,0.053319
1205.7938,0.053483
1207.6575,0.053169
1209.5211,0.052953
1211.3848,0.053047
1213.2485,0.053518
1215.1121,0.054362
1216.9758,0.055711
1218.8395,0.057434
1220.7031,0.059342
1222.5668,0.062062
1224.4305,0.066716
1226.2941,0.073142
1228.1578,0.078477
1230.0215,0.078867
1231.8852,0.071783
1233.7488,0.059923
1235.6125,0.051175
1237.4762,0.048380
1239.3398,0.048894
1241.2035,0.050515
1243.0672,0.052467
1244.9308,0.054424
1246.7945,0.055970
1248.6582,0.057592
1250.5218,0.058585
1252.3855,0.057733
1254.2492,0.056188
1256.1129,0.055035
1257.9765,0.054036
1259.8402,0.053496
1261.7039,0.053526
1263.5675,0.053859
1265.4312,0.054601
1267.2949,0.055674
1269.1585,0.057033
1271.0222,0.058903
1272.8859,0.061082
1274.7495,0.062993
1276.6132,0.064361
1278.4769,0.064885
1280.3405,0.064521
1282.2042,0.063750
1284.0679,0.063339
1285.9316,0.063805
1287.7952,0.065430
1289.6589,0.068178
1291.5226,0.071706
1293.3862,0.073919
1295.2499,0.073298
1297.1136,0.072503
1298.9772,0.073754
1300.8409,0.076221
1302.7046,0.078630
1304.5682,0.080272
1306.4319,0.081914
1308.2956,0.084476
1310.1592,0.088101
1312.0229,0.093765
1313.8866,0.100602
1315.7503,0.102163
1317.6139,0.095893
1319.4776,0.087857
1321.3413,0.084598
1323.2049,0.086239
1325.0686,0.090132
1326.9323,0.094241
1328.7959,0.098276
1330.6596,0.103202
1332.5233,0.109534
1334.3869,0.116043
1336.2506,0.120502
1338.1143,0.121838
1339.9780,0.120545
1341.8416,0.117171
1343.7053,0.117444
1345.5690,0.124517
1347.4326,0.136351
1349.2963,0.147826
1351.1600,0.151136
1353.0236,0.148801
1354.8873,0.150886
1356.7510,0.150445
1358.6146,0.132151
1360.4783,0.101811
1362.3420,0.075963
1364.2056,0.062782
1366.0693,0.059144
1367.9330,0.059496
1369.7967,0.061393
1371.6603,0.063143
1373.5240,0.067057
1375.3877,0.072556
1377.2513,0.075684
1379.1150,0.079117
1380.9787,0.083179
1382.8423,0.086690
1384.7060,0.090170
1386.5697,0.096481
1388.4333,0.105413
1390.2970,0.110184
1392.1607,0.114382
1394.0244,0.122360
1395.8880,0.133417
1397.7517,0.139949
1399.6154,0.145888
1401.4790,0.148630
1403.3427,0.150482
1405.2064,0.154680
1407.0700,0.156323
1408.9337,0.154388
1410.7974,0.151743
1412.6610,0.146859
1414.5247,0.139110
1416.3884,0.128563
1418.2520,0.117368
1420.1157,0.106419
1421.9794,0.096880
1423.8431,0.084975
1425.7067,0.071043
1427.5704,0.062189
1429.4341,0.056588
1431.2977,0.053317
1433.1614,0.051932
1435.0251,0.052533
1436.8887,0.056972
1438.7524,0.059346
1440.6161,0.059802
1442.4797,0.063099
1444.3434,0.068621
1446.2071,0.076726
1448.0707,0.087751
1449.9344,0.093110
1451.7981,0.093434
1453.6618,0.100036
1455.5254,0.113912
1457.3891,0.115183
1459.2528,0.079775
1461.1164,0.060516
1462.9801,0.052891
1464.8438,0.051881
1466.7074,0.052419
1468.5711,0.051460
1470.4348,0.051199
1472.2984,0.054484
1474.1621,0.058703
1476.0258,0.059286
1477.8895,0.059464
1479.7531,0.059880
1481.6168,0.062107
1483.4805,0.064411
1485.3441,0.066050
1487.2078,0.067672
1489.0715,0.068943
1490.9351,0.069759
1492.7988,0.067077
1494.6625,0.065671
1496.5261,0.068896
1498.3898,0.073281
1500.2535,0.073512
1502.1171,0.071505
1503.9808,0.069360
1505.8445,0.071977
1507.7082,0.087825
1509.5718,0.087242
1511.4355,0.084133
1513.2992,0.083126
1515.1628,0.082958
1517.0265,0.085181
1518.8902,0.085595
1520.7538,0.087802
1522.6175,0.093320
1524.4812,0.092933
1526.3448,0.094457
1528.2085,0.096209
1530.0722,0.095136
1531.9359,0.095654
1533.7995,0.100425
1535.6632,0.099467
1537.5269,0.095983
1539.3905,0.099549
1541.2542,0.112769
1543.1179,0.114549
1544.9815,0.116405
1546.8452,0.116637
1548.7089,0.117683
1550.5725,0.122753
1552.4362,0.125348
1554.2999,0.126386
1556.1635,0.127204
1558.0272,0.132270
1559.8909,0.153448
1561.7546,0.147117
1563.6182,0.144006
1565.4819,0.146965
1567.3456,0.149966
1569.2092,0.155305
1571.0729,0.161079
1572.9366,0.159343
1574.8002,0.159993
1576.6639,0.167171
1578.5276,0.169175
1580.3912,0.166883
1582.2549,0.166122
1584.1186,0.164865
1585.9822,0.162419
1587.8459,0.158674
1589.7096,0.154471
1591.5733,0.149691
1593.4369,0.145051
1595.3006,0.140194
1597.1643,0.135407
1599.0279,0.130831
1600.8916,0.127037
1602.7553,0.123365
1604.6189,0.119586
1606.4826,0.115767
1608.3463,0.112269
1610.2099,0.108534
1612.0736,0.105081
1613.9373,0.101704
1615.8010,0.099596
1617.6646,0.095818
1619.5283,0.089580
1621.3920,0.085268
1623.2556,0.083392
1625.1193,0.081706
1626.9830,0.080488
1628.8466,0.079847
1630.7103,0.078573
1632.5740,0.076941
1634.4376,0.077039
1636.3013,0.081565
1638.1650,0.083399
1640.0286,0.083206
1641.8923,0.084250
1643.7560,0.085638
1645.6197,0.088467
1647.4833,0.094287
1649.3470,0.095883
1651.2107,0.095715
1653.0743,0.101978
1654.9380,0.111657
1656.8017,0.109934
1658.6653,0.109454
1660.5290,0.109715
1662.3927,0.109667
1664.2563,0.106879
1666.1200,0.101604
1667.9837,0.095453
1669.8474,0.085054
1671.7110,0.071890
1673.5747,0.062760
1675.4384,0.054131
1677.3020,0.045640
1679.1657,0.041342
1681.0294,0.037935
1682.8930,0.035780
1684.7567,0.035182
1686.6204,0.033332
1688.4840,0.032238
1690.3477,0.031345
1692.2114,0.029817
1694.0750,0.028645
1695.9387,0.028053
1697.8024,0.026860
1699.6661,0.026204
1701.5297,0.025631
1703.3934,0.024559
1705.2571,0.024192
1707.1207,0.023615
1708.9844,0.022696
1710.8481,0.021915
1712.7117,0.021096
1714.5754,0.020369
1716.4391,0.020003
1718.3027,0.019973
1720.1664,0.019702
1722.0301,0.019415
1723.8937,0.019275
1725.7574,0.018770
1727.6211,0.018294
1729.4848,0.017994
1731.3484,0.017433
1733.2121,0.017099
1735.0758,0.017448
1736.9394,0.016855
1738.8031,0.016499
1740.6668,0.016728
1742.5304,0.016683
1744.3941,0.016309
1746.2578,0.015974
1748.1214,0.015937
1749.9851,0.016264
1751.8488,0.016787
1753.7125,0.016637
1755.5761,0.016313
1757.4398,0.016468
1759.3035,0.016553
1761.1671,0.016778
1763.0308,0.017145
1764.8945,0.016923
1766.7581,0.016733
1768.6218,0.016838
1770.4855,0.016725
1772.3491,0.017038
1774.2128,0.017020
1776.0765,0.016528
1777.9401,0.016277
1779.8038,0.016277
1781.6675,0.016485
1783.5312,0.016557
1785.3948,0.016574
1787.2585,0.016435
1789.1222,0.016370
1790.9858,0.016797
1792.8495,0.017544
1794.7132,0.017563
1796.5768,0.017393
1798.4405,0.017529
1800.3042,0.017939
1802.1678,0.018413
1804.0315,0.018604
1805.8952,0.018511
1807.7589,0.018411
1809.6225,0.018410
1811.4862,0.018470
1813.3499,0.018362
1815.2135,0.018147
1817.0772,0.018210
1818.9409,0.018525
1820.8045,0.018513
1822.6682,0.018187
1824.5319,0.018235
1826.3955,0.018226
1828.2592,0.018061
1830.1229,0.018460
1831.9865,0.018520
1833.8502,0.018418
1835.7139,0.018376
1837.5776,0.018075
1839.4412,0.017883
1841.3049,0.017896
1843.1686,0.018321
1845.0322,0.019058
1846.8959,0.018868
1848.7596,0.018752
1850.6232,0.018912
1852.4869,0.018865
1854.3506,0.018938
1856.2142,0.019196
1858.0779,0.019228
1859.9416,0.018963
1861.8052,0.018724
1863.6689,0.018361
1865.5326,0.018066
1867.3963,0.018445
1869.2599,0.018962
1871.1236,0.018979
1872.9873,0.018961
1874.8509,0.019168
1876.7146,0.019519
1878.5783,0.019930
1880.4419,0.020164
1882.3056,0.020293
1884.1693,0.020089
1886.0329,0.019751
1887.8966,0.019734
1889.7603,0.019571
1891.6240,0.018985
1893.4876,0.018694
1895.3513,0.018464
1897.2150,0.018086
1899.0786,0.018213
1900.9423,0.018745
1902.8060,0.019058
1904.6696,0.019012
1906.5333,0.018770
1908.3970,0.018890
1910.2606,0.018907
1912.1243,0.018874
1913.9880,0.019186
1915.8516,0.019706
1917.7153,0.020321
1919.5790,0.020525
1921.4427,0.019863
1923.3063,0.019147
1925.1700,0.018905
1927.0337,0.018642
1928.8973,0.018094
1930.7610,0.017682
1932.6247,0.017877
1934.4883,0.018015
1936.3520,0.017730
1938.2157,0.017668
1940.0793,0.017624
1941.9430,0.017673
1943.8067,0.017065
1945.6704,0.016246
1947.5340,0.015783
1949.3977,0.015630
1951.2614,0.016193
1953.1250,0.016112
1954.9887,0.015214
1956.8524,0.014676
1958.7160,0.014063
1960.5797,0.014136
1962.4434,0.014165
1964.3070,0.013929
1966.1707,0.013258
1968.0344,0.012171
1969.8980,0.011699
1971.7617,0.011522
1973.6254,0.010727
1975.4891,0.009292
1977.3527,0.009133
1979.2164,0.010882
1981.0801,0.012666
1982.9437,0.012936
1984.8074,0.012024
1986.6711,0.011908
1988.5347,0.012540
1990.3984,0.013944
1992.2621,0.014406
1994.1257,0.014272
1995.9894,0.014635
1997.8531,0.014189
1999.7167,0.013754
2001.5804,0.013917
2003.4441,0.013496
2005.3078,0.012729
2007.1714,0.011603
2009.0351,0.011702
2010.8988,0.012188
2012.7624,0.012509
2014.6261,0.012170
2016.4898,0.011437
2018.3534,0.011716
2020.2171,0.012506
2022.0808,0.011870
2023.9444,0.011794
2025.8081,0.013056
2027.6718,0.013483
2029.5355,0.013033
2031.3991,0.013399
2033.2628,0.014179
2035.1265,0.014470
2036.9901,0.014348
2038.8538,0.014928
2040.7175,0.016394
2042.5811,0.017535
2044.4448,0.018528
2046.3085,0.019992
2048.1721,0.020721
2050.0358,0.021030
2051.8995,0.022686
2053.7631,0.024480
2055.6268,0.024875
2057.4905,0.024572
2059.3542,0.024386
2061.2178,0.024656
2063.0815,0.025680
2064.9452,0.026714
2066.8088,0.026585
2068.6725,0.025556
2070.5362,0.025046
2072.3998,0.026150
2074.2635,0.027944
2076.1272,0.028546
2077.9908,0.027923
2079.8545,0.027558
2081.7182,0.027394
2083.5819,0.027228
2085.4455,0.027100
2087.3092,0.027061
2089.1729,0.027231
2091.0365,0.027011
2092.9002,0.026580
2094.7639,0.026541
2096.6275,0.026432
2098.4912,0.026311
2100.3549,0.026371
2102.2185,0.026800
2104.0822,0.027262
2105.9459,0.026927
2107.8095,0.026225
2109.6732,0.025504
2111.5369,0.024994
2113.4006,0.025139
2115.2642,0.025047
2117.1279,0.024563
2118.9916,0.024376
2120.8552,0.024576
2122.7189,0.024761
2124.5826,0.024663
2126.4462,0.024423
2128.3099,0.023877
2130.1736,0.022662
2132.0372,0.021687
2133.9009,0.020749
2135.7646,0.019874
2137.6282,0.019412
2139.4919,0.018532
2141.3556,0.017936
2143.2193,0.017900
2145.0829,0.018266
2146.9466,0.018478
2148.8103,0.017318
2150.6739,0.015558
2152.5376,0.014365
2154.4013,0.011588
2156.2649,0.008288
2158.1286,0.008996
2159.9923,0.012021
2161.8559,0.012784
2163.7196,0.012721
2165.5833,0.013945
2167.4470,0.014887
2169.3106,0.015310
2171.1743,0.015551
2173.0380,0.015799
2174.9016,0.016243
2176.7653,0.016070
2178.6290,0.016924
2180.4926,0.018230
2182.3563,0.018371
2184.2200,0.018015
2186.0836,0.017930
2187.9473,0.019142
2189.8110,0.020589
2191.6746,0.020923
2193.5383,0.019925
2195.4020,0.019922
2197.2657,0.021034
2199.1293,0.021085
2200.9930,0.021439
2202.8567,0.023002
2204.7203,0.023988
2206.5840,0.024112
2208.4477,0.023381
2210.3113,0.023025
2212.1750,0.023624
2214.0387,0.023553
2215.9023,0.023755
2217.7660,0.023970
2219.6297,0.024077
2221.4934,0.025452
2223.3570,0.026301
2225.2207,0.025894
2227.0844,0.025577
2228.9480,0.026468
2230.8117,0.026705
2232.6754,0.026188
2234.5390,0.026597
2236.4027,0.027567
2238.2664,0.028122
2240.1300,0.028409
2241.9937,0.028554
2243.8574,0.028683
2245.7210,0.029281
2247.5847,0.029703
2249.4484,0.029821
2251.3121,0.030384
2253.1757,0.030300
2255.0394,0.030493
2256.9031,0.031428
2258.7667,0.031820
2260.6304,0.031912
2262.4941,0.031650
2264.3577,0.031622
2266.2214,0.032001
2268.0851,0.031976
2269.9487,0.032741
2271.8124,0.034030
2273.6761,0.034588
2275.5397,0.034985
2277.4034,0.035465
2279.2671,0.035877
2281.1308,0.036069
2282.9944,0.036087
2284.8581,0.036503
2286.7218,0.036748
2288.5854,0.036986
2290.4491,0.037802
2292.3128,0.038026
2294.1764,0.037770
2296.0401,0.037700
2297.9038,0.037658
2299.7674,0.037979
2301.6311,0.038510
2303.4948,0.038484
2305.3585,0.038387
2307.2221,0.038843
2309.0858,0.039134
2310.9495,0.039011
2312.8131,0.038913
2314.6768,0.039049
2316.5405,0.039079
2318.4041,0.039031
2320.2678,0.039376
2322.1315,0.039765
2323.9951,0.039881
2325.8588,0.039488
2327.7225,0.038743
2329.5861,0.038597
2331.4498,0.038861
2333.3135,0.039035
2335.1772,0.038971
2337.0408,0.039037
2338.9045,0.039486
2340.7682,0.040235
2342.6318,0.040972
2344.4955,0.041607
2346.3592,0.041811
2348.2228,0.040908
2350.0865,0.039546
2351.9502,0.038968
2353.8138,0.039091
2355.6775,0.039196
2357.5412,0.039604
2359.4049,0.040665
2361.2685,0.041227
2363.1322,0.040795
2364.9959,0.040781
2366.8595,0.041667
2368.7232,0.042827
2370.5869,0.043432
2372.4505,0.043674
2374.3142,0.044166
2376.1779,0.044317
2378.0415,0.044479
2379.9052,0.044478
2381.7689,0.044277
2383.6325,0.044389
2385.4962,0.044392
2387.3599,0.044258
2389.2236,0.044419
2391.0872,0.044824
2392.9509,0.045162
2394.8146,0.045123
2396.6782,0.044959
2398.5419,0.044910
2400.4056,0.044788
2402.2692,0.044564
2404.1329,0.044688
2405.9966,0.045266
2407.8602,0.045540
2409.7239,0.045243
2411.5876,0.045221
2413.4512,0.045281
2415.3149,0.045091
2417.1786,0.045031
2419.0423,0.045311
2420.9059,0.045607
2422.7696,0.045661
2424.6333,0.045561
2426.4969,0.045546
2428.3606,0.045646
2430.2243,0.045751
2432.0879,0.045942
2433.9516,0.046238
2435.8153,0.046229
2437.6789,0.045864
2439.5426,0.045936
2441.4063,0.046469
2443.2700,0.046976
2445.1336,0.047320
2446.9973,0.047428
2448.8610,0.047445
2450.7246,0.047683
2452.5883,0.047883
2454.4520,0.048019
2456.3156,0.048053
2458.1793,0.047690
2460.0430,0.047670
2461.9066,0.048254
2463.7703,0.048492
2465.6340,0.048279
2467.4976,0.048508
2469.3613,0.048784
2471.2250,0.048527
2473.0887,0.048999
2474.9523,0.049587
2476.8160,0.049242
2478.6797,0.049200
2480.5433,0.049552
2482.4070,0.049420
2484.2707,0.049384
2486.1343,0.049795
2487.9980,0.049798
2489.8617,0.049458
2491.7253,0.049450
2493.5890,0.049340
2495.4527,0.049176
2497.3164,0.049448
2499.1800,0.049635
2501.0437,0.049709
2502.9074,0.049907
2504.7710,0.050101
2506.6347,0.049808
2508.4984,0.049649
2510.3620,0.049861
2512.2257,0.050030
2514.0894,0.050521
2515.9530,0.050535
2517.8167,0.050343
2519.6804,0.050555
2521.5440,0.050683
2523.4077,0.050610
2525.2714,0.050181
2527.1351,0.050324
