Wavenumber,Intensity
650.4205,0.108422
652.2841,0.119906
654.1478,0.133413
656.0115,0.147361
657.8751,0.162380
659.7388,0.176165
661.6025,0.191662
663.4661,0.206010
665.3298,0.216711
667.1935,0.224681
669.0571,0.222311
670.9208,0.202068
672.7845,0.183856
674.6481,0.169783
676.5118,0.159226
678.3755,0.151834
680.2392,0.147108
682.1028,0.141672
683.9665,0.132233
685.8302,0.119239
687.6938,0.109012
689.5575,0.099846
691.4212,0.090531
693.2848,0.081144
695.1485,0.072337
697.0122,0.064680
698.8758,0.060459
700.7395,0.059403
702.6032,0.058502
704.4669,0.057924
706.3305,0.057811
708.1942,0.056544
710.0579,0.054329
711.9215,0.053605
713.7852,0.053127
715.6489,0.052454
717.5125,0.052750
719.3762,0.053557
721.2399,0.054927
723.1035,0.056683
724.9672,0.059466
726.8309,0.062922
728.6945,0.067324
730.5582,0.073859
732.4219,0.082527
734.2856,0.096259
736.1492,0.119059
738.0129,0.148946
739.8766,0.174513
741.7402,0.185804
743.6039,0.170162
745.4676,0.121690
747.3312,0.082450
749.1949,0.069091
751.0586,0.063726
752.9222,0.063140
754.7859,0.058898
756.6496,0.047043
758.5132,0.040034
760.3769,0.039987
762.2406,0.042759
764.1043,0.047267
765.9679,0.052225
767.8316,0.053431
769.6953,0.050456
771.5589,0.048347
773.4226,0.049033
775.2863,0.051336
777.1499,0.054443
779.0136,0.056411
780.8773,0.056811
782.7409,0.056794
784.6046,0.057019
786.4683,0.057842
788.3320,0.059259
790.1956,0.060312
792.0593,0.061623
793.9230,0.063224
795.7866,0.065138
797.6503,0.067540
799.5140,0.070910
801.3776,0.074866
803.2413,0.076269
805.1050,0.074449
806.9686,0.072476
808.8323,0.072113
810.6960,0.072800
812.5596,0.073384
814.4233,0.073935
816.2870,0.074874
818.1507,0.076618
820.0143,0.078398
821.8780,0.079702
823.7417,0.081381
825.6053,0.083696
827.4690,0.086045
829.3327,0.088784
831.1963,0.091477
833.0600,0.093979
834.9237,0.096731
836.7873,0.099762
838.6510,0.101718
840.5147,0.102649
842.3784,0.104862
844.2420,0.110167
846.1057,0.117785
847.9694,0.123304
849.8330,0.122285
851.6967,0.117416
853.5604,0.116940
855.4240,0.121360
857.2877,0.123765
859.1514,0.122932
861.0150,0.123010
862.8787,0.126028
864.7424,0.128166
866.6060,0.126084
868.4697,0.122256
870.3334,0.120789
872.1971,0.122784
874.0607,0.126610
875.9244,0.129041
877.7881,0.129120
879.6517,0.128847
881.5154,0.130493
883.3791,0.132692
885.2427,0.133883
887.1064,0.134984
888.9701,0.136254
890.8337,0.137275
892.6974,0.138885
894.5611,0.140845
896.4247,0.142928
898.2884,0.145124
900.1521,0.147623
902.0158,0.149986
903.8794,0.152321
905.7431,0.155295
907.6068,0.158683
909.4704,0.161970
911.3341,0.165530
913.1978,0.169889
915.0614,0.174997
916.9251,0.179036
918.7888,0.180639
920.6524,0.179621
922.5161,0.177547
924.3798,0.176604
926.2435,0.177017
928.1071,0.177702
929.9708,0.178160
931.8345,0.178428
933.6981,0.179654
935.5618,0.181711
937.4255,0.184258
939.2891,0.186784
941.1528,0.189307
943.0165,0.191712
944.8801,0.194010
946.7438,0.196178
948.6075,0.198389
950.4711,0.200519
952.3348,0.202899
954.1985,0.205704
956.0622,0.208836
957.9258,0.211818
959.7895,0.215042
961.6532,0.218251
963.5168,0.220965
965.3805,0.223064
967.2442,0.225382
969.1078,0.228234
970.9715,0.231208
972.8352,0.233958
974.6988,0.237344
976.5625,0.241373
978.4262,0.245772
980.2899,0.249851
982.1535,0.251358
984.0172,0.248457
985.8809,0.244890
987.7445,0.243082
989.6082,0.241674
991.4719,0.239993
993.3355,0.238964
995.1992,0.238685
997.0629,0.238972
998.9265,0.239347
1000.7902,0.239799
1002.6539,0.240545
1004.5175,0.241377
1006.3812,0.239817
1008.2449,0.234126
1010.1086,0.226524
1011.9722,0.219293
1013.8359,0.212393
1015.6996,0.205558
1017.5632,0.198517
1019.4269,0.191499
1021.2906,0.184050
1023.1542,0.176147
1025.0179,0.168245
1026.8816,0.160819
1028.7452,0.153497
1030.6089,0.146352
1032.4726,0.139524
1034.3362,0.133019
1036.1999,0.126474
1038.0636,0.120026
1039.9273,0.113678
1041.7909,0.107389
1043.6546,0.101369
1045.5183,0.095616
1047.3819,0.090336
1049.2456,0.085974
1051.1093,0.082517
1052.9729,0.079988
1054.8366,0.078290
1056.7003,0.077119
1058.5639,0.076439
1060.4276,0.075943
1062.2913,0.075061
1064.1550,0.074246
1066.0186,0.073761
1067.8823,0.072992
1069.7460,0.072022
1071.6096,0.072199
1073.4733,0.073697
1075.3370,0.075000
1077.2006,0.074061
1079.0643,0.071179
1080.9280,0.068728
1082.7916,0.067934
1084.6553,0.068078
1086.5190,0.068572
1088.3826,0.069266
1090.2463,0.070185
1092.1100,0.071675
1093.9737,0.073516
1095.8373,0.074821
1097.7010,0.075150
1099.5647,0.073844
1101.4283,0.071207
1103.2920,0.067898
1105.1557,0.064147
1107.0193,0.061017
1108.8830,0.059083
1110.7467,0.058187
1112.6103,0.058110
1114.4740,0.057889
1116.3377,0.056577
1118.2014,0.054395
1120.0650,0.052189
1121.9287,0.050185
1123.7924,0.048881
1125.6560,0.048688
1127.5197,0.048997
1129.3834,0.049064
1131.2470,0.048388
1133.1107,0.047088
1134.9744,0.045864
1136.8380,0.045205
1138.7017,0.045453
1140.5654,0.046445
1142.4290,0.047278
1144.2927,0.046815
1146.1564,0.044947
1148.0201,0.042261
1149.8837,0.039903
1151.7474,0.039239
1153.6111,0.040561
1155.4747,0.042072
1157.3384,0.041433
1159.2021,0.038627
1161.0657,0.035260
1162.9294,0.032237
1164.7931,0.029685
1166.6567,0.027938
1168.5204,0.027000
1170.3841,0.026585
1172.2477,0.026434
1174.1114,0.026420
1175.9751,0.026502
1177.8388,0.026468
1179.7024,0.026421
1181.5661,0.026450
1183.4298,0.026427
1185.2934,0.026574
1187.1571,0.026861
1189.0208,0.027071
1190.8844,0.027135
1192.7481,0.027171
1194.6118,0.027049
1196.4754,0.026978
1198.3391,0.027211
1200.2028,0.027652
1202.0665,0.028151
1203.9301,0.028613
1205.7938,0.028785
1207.6575,0.028732
1209.5211,0.028722
1211.3848,0.028835
1213.2485,0.029099
1215.1121,0.029616
1216.9758,0.030336
1218.8395,0.031162
1220.7031,0.032147
1222.5668,0.033611
1224.4305,0.036037
1226.2941,0.039435
1228.1578,0.042416
1230.0215,0.042932
1231.8852,0.039384
1233.7488,0.033201
1235.6125,0.028664
1237.4762,0.027195
1239.3398,0.027403
1241.2035,0.028257
1243.0672,0.029269
1244.9308,0.030163
1246.7945,0.030951
1248.6582,0.031827
1250.5218,0.032350
1252.3855,0.031982
1254.2492,0.031244
1256.1129,0.030650
1257.9765,0.030253
1259.8402,0.030124
1261.7039,0.030243
1263.5675,0.030516
1265.4312,0.030912
1267.2949,0.031301
1269.1585,0.031762
1271.0222,0.032477
1272.8859,0.033454
1274.7495,0.034425
1276.6132,0.035138
1278.4769,0.035432
1280.3405,0.035255
1282.2042,0.034794
1284.0679,0.034652
1285.9316,0.035169
1287.7952,0.036268
1289.6589,0.037994
1291.5226,0.040275
1293.3862,0.041912
1295.2499,0.041906
1297.1136,0.041566
1298.9772,0.042081
1300.8409,0.043299
1302.7046,0.044710
1304.5682,0.045794
1306.4319,0.046566
1308.2956,0.047467
1310.1592,0.048693
1312.0229,0.050952
1313.8866,0.054106
1315.7503,0.054900
1317.6139,0.051708
1319.4776,0.047730
1321.3413,0.046286
1323.2049,0.047463
1325.0686,0.049897
1326.9323,0.052437
1328.7959,0.054871
1330.6596,0.057620
1332.5233,0.061155
1334.3869,0.064877
1336.2506,0.067275
1338.1143,0.067779
1339.9780,0.066934
1341.8416,0.065551
1343.7053,0.065974
1345.5690,0.069594
1347.4326,0.075443
1349.2963,0.081024
1351.1600,0.082492
1353.0236,0.080998
1354.8873,0.081763
1356.7510,0.081349
1358.6146,0.071865
1360.4783,0.056076
1362.3420,0.042756
1364.2056,0.036367
1366.0693,0.034826
1367.9330,0.035189
1369.7967,0.036586
1371.6603,0.037992
1373.5240,0.040140
1375.3877,0.043192
1377.2513,0.045294
1379.1150,0.047405
1380.9787,0.049881
1382.8423,0.052026
1384.7060,0.054326
1386.5697,0.057952
1388.4333,0.062914
1390.2970,0.065695
1392.1607,0.067680
1394.0244,0.071241
1395.8880,0.076301
1397.7517,0.079600
1399.6154,0.082699
1401.4790,0.084416
1403.3427,0.084836
1405.2064,0.086094
1407.0700,0.086227
1408.9337,0.084742
1410.7974,0.083074
1412.6610,0.080704
1414.5247,0.076491
1416.3884,0.070304
1418.2520,0.063656
1420.1157,0.058269
1421.9794,0.053657
1423.8431,0.047200
1425.7067,0.040022
1427.5704,0.035013
1429.4341,0.031775
1431.2977,0.030273
1433.1614,0.029784
1435.0251,0.029960
1436.8887,0.031998
1438.7524,0.033904
1440.6161,0.034196
1442.4797,0.035833
1444.3434,0.038879
1446.2071,0.043191
1448.0707,0.048584
1449.9344,0.051295
1451.7981,0.051745
1453.6618,0.055413
1455.5254,0.062040
1457.3891,0.061926
1459.2528,0.045511
1461.1164,0.035210
1462.9801,0.030816
1464.8438,0.030215
1466.7074,0.031004
1468.5711,0.030407
1470.4348,0.029755
1472.2984,0.030749
1474.1621,0.033066
1476.0258,0.033361
1477.8895,0.033520
1479.7531,0.033643
1481.6168,0.034632
1483.4805,0.036196
1485.3441,0.037262
1487.2078,0.038119
1489.0715,0.038563
1490.9351,0.039140
1492.7988,0.038607
1494.6625,0.037864
1496.5261,0.039471
1498.3898,0.042058
1500.2535,0.042456
1502.1171,0.041994
1503.9808,0.041114
1505.8445,0.042095
1507.7082,0.050019
1509.5718,0.050610
1511.4355,0.048954
1513.2992,0.048545
1515.1628,0.048192
1517.0265,0.048851
1518.8902,0.049122
1520.7538,0.049249
1522.6175,0.052244
1524.4812,0.052538
1526.3448,0.052912
1528.2085,0.054353
1530.0722,0.054038
1531.9359,0.053869
1533.7995,0.055962
1535.6632,0.056598
1537.5269,0.054861
1539.3905,0.056422
1541.2542,0.062937
1543.1179,0.063995
1544.9815,0.065312
1546.8452,0.066640
1548.7089,0.067565
1550.5725,0.070448
1552.4362,0.072351
1554.2999,0.073000
1556.1635,0.074070
1558.0272,0.075885
1559.8909,0.086184
1561.7546,0.084914
1563.6182,0.083079
1565.4819,0.084680
1567.3456,0.086455
1569.2092,0.088644
1571.0729,0.091819
1572.9366,0.091087
1574.8002,0.090773
1576.6639,0.093826
1578.5276,0.094643
1580.3912,0.093013
1582.2549,0.092223
1584.1186,0.091177
1585.9822,0.089470
1587.8459,0.087526
1589.7096,0.085339
1591.5733,0.082739
1593.4369,0.080198
1595.3006,0.077672
1597.1643,0.075185
1599.0279,0.073019
1600.8916,0.071053
1602.7553,0.069123
1604.6189,0.067234
1606.4826,0.065215
1608.3463,0.063404
1610.2099,0.061652
1612.0736,0.059796
1613.9373,0.057925
1615.8010,0.055992
1617.6646,0.053792
1619.5283,0.050901
1621.3920,0.048442
1623.2556,0.047174
1625.1193,0.046559
1626.9830,0.045841
1628.8466,0.045421
1630.7103,0.044633
1632.5740,0.043313
1634.4376,0.042690
1636.3013,0.044356
1638.1650,0.045519
1640.0286,0.045382
1641.8923,0.045930
1643.7560,0.046505
1645.6197,0.047317
1647.4833,0.050507
1649.3470,0.052822
1651.2107,0.052350
1653.0743,0.054553
1654.9380,0.060859
1656.8017,0.060429
1658.6653,0.060050
1660.5290,0.059968
1662.3927,0.059234
1664.2563,0.057911
1666.1200,0.055117
1667.9837,0.051009
1669.8474,0.045034
1671.7110,0.038770
1673.5747,0.033919
1675.4384,0.029164
1677.3020,0.025440
1679.1657,0.023014
1681.0294,0.020980
1682.8930,0.019234
1684.7567,0.018862
1686.6204,0.019493
1688.4840,0.018341
1690.3477,0.017891
1692.2114,0.017299
1694.0750,0.015964
1695.9387,0.014852
1697.8024,0.015042
1699.6661,0.013966
1701.5297,0.014564
1703.3934,0.014304
1705.2571,0.013059
1707.1207,0.012713
1708.9844,0.012326
1710.8481,0.011635
1712.7117,0.010837
1714.5754,0.009953
1716.4391,0.009650
1718.3027,0.010040
1720.1664,0.010761
1722.0301,0.010240
1723.8937,0.009950
1725.7574,0.009854
1727.6211,0.009337
1729.4848,0.008846
1731.3484,0.008469
1733.2121,0.007520
1735.0758,0.008235
1736.9394,0.008856
1738.8031,0.007808
1740.6668,0.007890
1742.5304,0.008026
1744.3941,0.007810
1746.2578,0.007619
1748.1214,0.007313
1749.9851,0.007590
1751.8488,0.008137
1753.7125,0.008387
1755.5761,0.007933
1757.4398,0.008001
1759.3035,0.008215
1761.1671,0.007891
1763.0308,0.008394
1764.8945,0.008579
1766.7581,0.008103
1768.6218,0.008020
1770.4855,0.007891
1772.3491,0.007555
1774.2128,0.008065
1776.0765,0.007873
1777.9401,0.007765
1779.8038,0.007710
1781.6675,0.008033
1783.5312,0.008273
1785.3948,0.008293
1787.2585,0.008343
1789.1222,0.007882
1790.9858,0.007393
1792.8495,0.007926
1794.7132,0.008606
1796.5768,0.008400
1798.4405,0.008392
1800.3042,0.008605
1802.1678,0.008980
1804.0315,0.008961
1805.8952,0.008813
1807.7589,0.008806
1809.6225,0.008702
1811.4862,0.008749
1813.3499,0.008885
1815.2135,0.008587
1817.0772,0.008567
1818.9409,0.008861
1820.8045,0.008920
1822.6682,0.008711
1824.5319,0.008453
1826.3955,0.008719
1828.2592,0.008468
1830.1229,0.008086
1831.9865,0.008673
1833.8502,0.008695
1835.7139,0.008648
1837.5776,0.008456
1839.4412,0.008410
1841.3049,0.008397
1843.1686,0.008324
1845.0322,0.008712
1846.8959,0.009152
1848.7596,0.008808
1850.6232,0.008828
1852.4869,0.008963
1854.3506,0.008875
1856.2142,0.008759
1858.0779,0.008909
1859.9416,0.008864
1861.8052,0.008760
1863.6689,0.008561
1865.5326,0.008478
1867.3963,0.008122
1869.2599,0.008202
1871.1236,0.008872
1872.9873,0.008788
1874.8509,0.008631
1876.7146,0.008877
1878.5783,0.009152
1880.4419,0.009358
1882.3056,0.009321
1884.1693,0.009381
1886.0329,0.009398
1887.8966,0.009018
1889.7603,0.008638
1891.6240,0.008992
1893.4876,0.008945
1895.3513,0.008858
1897.2150,0.008814
1899.0786,0.008496
1900.9423,0.008075
1902.8060,0.007988
1904.6696,0.008127
1906.5333,0.008306
1908.3970,0.008544
1910.2606,0.008798
1912.1243,0.008734
1913.9880,0.008579
1915.8516,0.008575
1917.7153,0.008741
1919.5790,0.009025
1921.4427,0.008847
1923.3063,0.008486
1925.1700,0.008421
1927.0337,0.008266
1928.8973,0.007723
1930.7610,0.006905
1932.6247,0.007167
1934.4883,0.007218
1936.3520,0.007119
1938.2157,0.007427
1940.0793,0.007617
1941.9430,0.007606
1943.8067,0.007401
1945.6704,0.006367
1947.5340,0.006266
1949.3977,0.006974
1951.2614,0.006835
1953.1250,0.006281
1954.9887,0.005936
1956.8524,0.005146
1958.7160,0.003710
1960.5797,0.003145
1962.4434,0.003677
1964.3070,0.003420
1966.1707,0.003744
1968.0344,0.003958
1969.8980,0.003717
1971.7617,0.002753
1973.6254,0.001099
1975.4891,0.001386
1977.3527,0.003253
1979.2164,0.004149
1981.0801,0.004810
1982.9437,0.005036
1984.8074,0.004433
1986.6711,0.003017
1988.5347,0.002996
1990.3984,0.004881
1992.2621,0.006209
1994.1257,0.006481
1995.9894,0.006465
1997.8531,0.005295
1999.7167,0.003627
2001.5804,0.003211
2003.4441,0.003253
2005.3078,0.003721
2007.1714,0.004675
2009.0351,0.003586
2010.8988,0.002191
2012.7624,0.002540
2014.6261,0.003863
2016.4898,0.004326
2018.3534,0.004077
2020.2171,0.004379
2022.0808,0.004196
2023.9444,0.003081
2025.8081,0.003001
2027.6718,0.004146
2029.5355,0.004977
2031.3991,0.004208
2033.2628,0.003801
2035.1265,0.003948
2036.9901,0.004335
2038.8538,0.005632
2040.7175,0.006886
2042.5811,0.007245
2044.4448,0.007894
2046.3085,0.008443
2048.1721,0.009223
2050.0358,0.010598
2051.8995,0.011529
2053.7631,0.010924
2055.6268,0.010433
2057.4905,0.010783
2059.3542,0.011105
2061.2178,0.010826
2063.0815,0.011203
2064.9452,0.012598
2066.8088,0.012839
2068.6725,0.012077
2070.5362,0.011690
2072.3998,0.012079
2074.2635,0.012864
2076.1272,0.012643
2077.9908,0.012561
2079.8545,0.012806
2081.7182,0.012847
2083.5819,0.013175
2085.4455,0.013276
2087.3092,0.012785
2089.1729,0.012271
2091.0365,0.012119
2092.9002,0.012142
2094.7639,0.012183
2096.6275,0.012673
2098.4912,0.012400
2100.3549,0.012065
2102.2185,0.012669
2104.0822,0.013393
2105.9459,0.013581
2107.8095,0.012864
2109.6732,0.012236
2111.5369,0.012243
2113.4006,0.012300
2115.2642,0.012361
2117.1279,0.011753
2118.9916,0.011321
2120.8552,0.010886
2122.7189,0.009999
2124.5826,0.010189
2126.4462,0.010867
2128.3099,0.010261
2130.1736,0.008928
2132.0372,0.008802
2133.9009,0.009394
2135.7646,0.009297
2137.6282,0.008891
2139.4919,0.008042
2141.3556,0.007468
2143.2193,0.006645
2145.0829,0.005587
2146.9466,0.005365
2148.8103,0.005714
2150.6739,0.005236
2152.5376,0.005443
2154.4013,0.004080
2156.2649,0.001137
2158.1286,0.001000
2159.9923,0.002421
2161.8559,0.003261
2163.7196,0.004315
2165.5833,0.005542
2167.4470,0.005482
2169.3106,0.005010
2171.1743,0.005881
2173.0380,0.006752
2174.9016,0.007373
2176.7653,0.007715
2178.6290,0.007101
2180.4926,0.006640
2182.3563,0.007890
2184.2200,0.008786
2186.0836,0.008113
2187.9473,0.007331
2189.8110,0.008289
2191.6746,0.009665
2193.5383,0.009692
2195.4020,0.009140
2197.2657,0.009620
2199.1293,0.010678
2200.9930,0.010761
2202.8567,0.009312
2204.7203,0.009164
2206.5840,0.010032
2208.4477,0.010429
2210.3113,0.010535
2212.1750,0.010761
2214.0387,0.011280
2215.9023,0.011272
2217.7660,0.011150
2219.6297,0.011443
2221.4934,0.012058
2223.3570,0.012203
2225.2207,0.011626
2227.0844,0.011613
2228.9480,0.011945
2230.8117,0.012079
2232.6754,0.012245
2234.5390,0.012340
2236.4027,0.012747
2238.2664,0.013664
2240.1300,0.013935
2241.9937,0.014052
2243.8574,0.013931
2245.7210,0.013551
2247.5847,0.013639
2249.4484,0.014264
2251.3121,0.014634
2253.1757,0.014868
2255.0394,0.014819
2256.9031,0.014665
2258.7667,0.015157
2260.6304,0.016019
2262.4941,0.016278
2264.3577,0.016022
2266.2214,0.016443
2268.0851,0.016737
2269.9487,0.016284
2271.8124,0.016384
2273.6761,0.016573
2275.5397,0.016708
2277.4034,0.017120
2279.2671,0.018099
2281.1308,0.018630
2282.9944,0.018464
2284.8581,0.018449
2286.7218,0.018549
2288.5854,0.018868
2290.4491,0.019245
2292.3128,0.019041
2294.1764,0.018913
2296.0401,0.019154
2297.9038,0.019157
2299.7674,0.019240
2301.6311,0.019353
2303.4948,0.019287
2305.3585,0.019390
2307.2221,0.019640
2309.0858,0.019824
2310.9495,0.019815
2312.8131,0.019828
2314.6768,0.019926
2316.5405,0.020109
2318.4041,0.020316
2320.2678,0.020650
2322.1315,0.021008
2323.9951,0.020982
2325.8588,0.020340
2327.7225,0.019657
2329.5861,0.019451
2331.4498,0.019733
2333.3135,0.020148
2335.1772,0.020089
2337.0408,0.019875
2338.9045,0.019919
2340.7682,0.020130
2342.6318,0.020638
2344.4955,0.021182
2346.3592,0.021350
2348.2228,0.021068
2350.0865,0.020435
2351.9502,0.019927
2353.8138,0.019947
2355.6775,0.020108
2357.5412,0.020480
2359.4049,0.020570
2361.2685,0.020304
2363.1322,0.020386
2364.9959,0.020531
2366.8595,0.020866
2368.7232,0.021226
2370.5869,0.021369
2372.4505,0.021857
2374.3142,0.021802
2376.1779,0.021683
2378.0415,0.022217
2379.9052,0.022420
2381.7689,0.022064
2383.6325,0.021934
2385.4962,0.022001
2387.3599,0.022023
2389.2236,0.022265
2391.0872,0.022518
2392.9509,0.022491
2394.8146,0.022518
2396.6782,0.022579
2398.5419,0.022584
2400.4056,0.022521
2402.2692,0.022391
2404.1329,0.022436
2405.9966,0.022434
2407.8602,0.022189
2409.7239,0.022318
2411.5876,0.022519
2413.4512,0.022679
2415.3149,0.022873
2417.1786,0.022973
2419.0423,0.023088
2420.9059,0.023146
2422.7696,0.022996
2424.6333,0.022762
2426.4969,0.022574
2428.3606,0.022820
2430.2243,0.023147
2432.0879,0.023008
2433.9516,0.022701
2435.8153,0.022628
2437.6789,0.022748
2439.5426,0.023069
2441.4063,0.023508
2443.2700,0.023636
2445.1336,0.023579
2446.9973,0.023773
2448.8610,0.023823
2450.7246,0.023886
2452.5883,0.024305
2454.4520,0.024617
2456.3156,0.024532
2458.1793,0.024362
2460.0430,0.024177
2461.9066,0.024126
2463.7703,0.023971
2465.6340,0.023654
2467.4976,0.023687
2469.3613,0.024371
2471.2250,0.024779
2473.0887,0.025048
2474.9523,0.025271
2476.8160,0.024869
2478.6797,0.024695
2480.5433,0.024745
2482.4070,0.024877
2484.2707,0.025426
2486.1343,0.025265
2487.9980,0.024807
2489.8617,0.025152
2491.7253,0.025490
2493.5890,0.025236
2495.4527,0.025054
2497.3164,0.025025
2499.1800,0.024663
2501.0437,0.024213
2502.9074,0.024272
2504.7710,0.024822
2506.6347,0.024872
2508.4984,0.024915
2510.3620,0.025171
2512.2257,0.025303
2514.0894,0.025470
2515.9530,0.025504
2517.8167,0.025799
2519.6804,0.025826
2521.5440,0.025501
2523.4077,0.025124
2525.2714,0.025192
2527.1351,0.025101
