Wavenumber,Intensity
650.4205,0.181898
652.2841,0.177545
654.1478,0.174470
656.0115,0.171823
657.8751,0.170462
659.7388,0.165621
661.6025,0.162705
663.4661,0.160220
665.3298,0.157023
667.1935,0.153967
669.0571,0.156891
670.9208,0.158805
672.7845,0.158141
674.6481,0.157650
676.5118,0.158550
678.3755,0.157948
680.2392,0.158741
682.1028,0.159030
683.9665,0.158560
685.8302,0.157444
687.6938,0.157926
689.5575,0.158199
691.4212,0.157955
693.2848,0.159023
695.1485,0.161658
697.0122,0.162633
698.8758,0.162394
700.7395,0.161893
702.6032,0.161491
704.4669,0.161043
706.3305,0.158075
708.1942,0.152006
710.0579,0.145864
711.9215,0.139973
713.7852,0.134942
715.6489,0.129594
717.5125,0.124256
719.3762,0.119497
721.2399,0.114963
723.1035,0.111057
724.9672,0.107702
726.8309,0.103684
728.6945,0.100089
730.5582,0.097244
732.4219,0.094525
734.2856,0.091627
736.1492,0.089167
738.0129,0.087372
739.8766,0.087395
741.7402,0.089232
743.6039,0.091237
745.4676,0.092257
747.3312,0.092614
749.1949,0.092726
751.0586,0.092752
752.9222,0.092674
754.7859,0.092608
756.6496,0.092241
758.5132,0.091889
760.3769,0.091347
762.2406,0.090959
764.1043,0.090298
765.9679,0.089304
767.8316,0.088391
769.6953,0.087447
771.5589,0.086457
773.4226,0.086021
775.2863,0.085886
777.1499,0.085101
779.0136,0.084625
780.8773,0.084769
782.7409,0.085277
784.6046,0.086068
786.4683,0.086805
788.3320,0.087696
790.1956,0.088721
792.0593,0.089944
793.9230,0.090810
795.7866,0.091822
797.6503,0.093166
799.5140,0.094223
801.3776,0.094754
803.2413,0.094717
805.1050,0.094167
806.9686,0.093498
808.8323,0.092335
810.6960,0.090543
812.5596,0.088424
814.4233,0.086319
816.2870,0.084197
818.1507,0.082137
820.0143,0.080553
821.8780,0.079577
823.7417,0.079247
825.6053,0.079918
827.4690,0.081385
829.3327,0.082001
831.1963,0.078483
833.0600,0.071132
834.9237,0.064924
836.7873,0.062183
838.6510,0.061493
840.5147,0.061550
842.3784,0.061716
844.2420,0.061761
846.1057,0.061896
847.9694,0.062041
849.8330,0.061801
851.6967,0.061625
853.5604,0.061935
855.4240,0.062307
857.2877,0.062468
859.1514,0.062424
861.0150,0.062029
862.8787,0.061572
864.7424,0.060997
866.6060,0.060095
868.4697,0.059233
870.3334,0.058316
872.1971,0.057483
874.0607,0.056964
875.9244,0.056642
877.7881,0.056753
879.6517,0.057164
881.5154,0.057680
883.3791,0.058307
885.2427,0.059030
887.1064,0.059882
888.9701,0.060978
890.8337,0.061917
892.6974,0.062624
894.5611,0.063585
896.4247,0.064766
898.2884,0.066067
900.1521,0.067626
902.0158,0.069538
903.8794,0.071947
905.7431,0.075109
907.6068,0.078760
909.4704,0.082970
911.3341,0.088089
913.1978,0.093567
915.0614,0.096271
916.9251,0.091315
918.7888,0.081132
920.6524,0.073314
922.5161,0.070154
924.3798,0.069466
926.2435,0.069433
928.1071,0.069626
929.9708,0.069890
931.8345,0.070167
933.6981,0.070373
935.5618,0.070486
937.4255,0.070497
939.2891,0.070389
941.1528,0.070301
943.0165,0.070470
944.8801,0.070941
946.7438,0.071572
948.6075,0.072508
950.4711,0.073940
952.3348,0.075629
954.1985,0.077437
956.0622,0.079563
957.9258,0.081951
959.7895,0.084344
961.6532,0.086782
963.5168,0.089652
965.3805,0.093038
967.2442,0.096886
969.1078,0.101149
970.9715,0.105795
972.8352,0.111188
974.6988,0.118119
976.5625,0.127859
978.4262,0.142467
980.2899,0.161264
982.1535,0.169216
984.0172,0.151646
985.8809,0.128291
987.7445,0.118886
989.6082,0.118833
991.4719,0.120390
993.3355,0.121796
995.1992,0.122824
997.0629,0.123333
998.9265,0.123246
1000.7902,0.123007
1002.6539,0.122877
1004.5175,0.122737
1006.3812,0.122633
1008.2449,0.122729
1010.1086,0.122981
1011.9722,0.123216
1013.8359,0.123184
1015.6996,0.122823
1017.5632,0.122160
1019.4269,0.121191
1021.2906,0.119970
1023.1542,0.118594
1025.0179,0.117036
1026.8816,0.115391
1028.7452,0.113938
1030.6089,0.112904
1032.4726,0.112165
1034.3362,0.111825
1036.1999,0.112130
1038.0636,0.113055
1039.9273,0.114418
1041.7909,0.115984
1043.6546,0.117561
1045.5183,0.118909
1047.3819,0.119451
1049.2456,0.117677
1051.1093,0.111917
1052.9729,0.103303
1054.8366,0.094985
1056.7003,0.088900
1058.5639,0.085170
1060.4276,0.083005
1062.2913,0.081704
1064.1550,0.081249
1066.0186,0.081973
1067.8823,0.084328
1069.7460,0.088113
1071.6096,0.092640
1073.4733,0.097011
1075.3370,0.100042
1077.2006,0.101441
1079.0643,0.101888
1080.9280,0.101753
1082.7916,0.101315
1084.6553,0.100996
1086.5190,0.100914
1088.3826,0.101190
1090.2463,0.102205
1092.1100,0.104051
1093.9737,0.106517
1095.8373,0.109758
1097.7010,0.113875
1099.5647,0.118538
1101.4283,0.123167
1103.2920,0.126852
1105.1557,0.128816
1107.0193,0.128158
1108.8830,0.123955
1110.7467,0.116503
1112.6103,0.107334
1114.4740,0.098138
1116.3377,0.090078
1118.2014,0.083747
1120.0650,0.079273
1121.9287,0.076387
1123.7924,0.074443
1125.6560,0.072892
1127.5197,0.071453
1129.3834,0.069866
1131.2470,0.068325
1133.1107,0.067282
1134.9744,0.066987
1136.8380,0.067463
1138.7017,0.068443
1140.5654,0.069714
1142.4290,0.071117
1144.2927,0.072429
1146.1564,0.073395
1148.0201,0.073899
1149.8837,0.073960
1151.7474,0.073613
1153.6111,0.072914
1155.4747,0.071896
1157.3384,0.070728
1159.2021,0.069470
1161.0657,0.068262
1162.9294,0.067363
1164.7931,0.066802
1166.6567,0.066679
1168.5204,0.067106
1170.3841,0.067742
1172.2477,0.067749
1174.1114,0.066102
1175.9751,0.062485
1177.8388,0.058237
1179.7024,0.054947
1181.5661,0.053021
1183.4298,0.052207
1185.2934,0.052094
1187.1571,0.052244
1189.0208,0.052560
1190.8844,0.053015
1192.7481,0.053442
1194.6118,0.053832
1196.4754,0.054208
1198.3391,0.054635
1200.2028,0.055154
1202.0665,0.055700
1203.9301,0.056120
1205.7938,0.056424
1207.6575,0.056682
1209.5211,0.056854
1211.3848,0.057069
1213.2485,0.057371
1215.1121,0.057672
1216.9758,0.058030
1218.8395,0.058475
1220.7031,0.058922
1222.5668,0.059424
1224.4305,0.060027
1226.2941,0.060604
1228.1578,0.061227
1230.0215,0.061854
1231.8852,0.062363
1233.7488,0.062920
1235.6125,0.063529
1237.4762,0.064042
1239.3398,0.064504
1241.2035,0.064971
1243.0672,0.065382
1244.9308,0.065800
1246.7945,0.066211
1248.6582,0.066592
1250.5218,0.067018
1252.3855,0.067487
1254.2492,0.067967
1256.1129,0.068491
1257.9765,0.069144
1259.8402,0.069923
1261.7039,0.070751
1263.5675,0.071567
1265.4312,0.072249
1267.2949,0.072577
1269.1585,0.072603
1271.0222,0.072644
1272.8859,0.072812
1274.7495,0.073151
1276.6132,0.073807
1278.4769,0.074796
1280.3405,0.076053
1282.2042,0.077413
1284.0679,0.078834
1285.9316,0.080474
1287.7952,0.082416
1289.6589,0.084597
1291.5226,0.087029
1293.3862,0.089861
1295.2499,0.093249
1297.1136,0.097261
1298.9772,0.101903
1300.8409,0.107222
1302.7046,0.112591
1304.5682,0.116103
1306.4319,0.114876
1308.2956,0.106460
1310.1592,0.092093
1312.0229,0.077852
1313.8866,0.068958
1315.7503,0.065991
1317.6139,0.066490
1319.4776,0.068389
1321.3413,0.070452
1323.2049,0.072502
1325.0686,0.074758
1326.9323,0.076993
1328.7959,0.079020
1330.6596,0.080914
1332.5233,0.082417
1334.3869,0.083172
1336.2506,0.083641
1338.1143,0.084623
1339.9780,0.085894
1341.8416,0.086189
1343.7053,0.085973
1345.5690,0.086206
1347.4326,0.086798
1349.2963,0.087723
1351.1600,0.088759
1353.0236,0.089903
1354.8873,0.091539
1356.7510,0.093302
1358.6146,0.094764
1360.4783,0.096753
1362.3420,0.100089
1364.2056,0.102808
1366.0693,0.103868
1367.9330,0.105790
1369.7967,0.108217
1371.6603,0.110067
1373.5240,0.113173
1375.3877,0.116736
1377.2513,0.118800
1379.1150,0.121674
1380.9787,0.125490
1382.8423,0.129253
1384.7060,0.133264
1386.5697,0.138857
1388.4333,0.145044
1390.2970,0.147761
1392.1607,0.148687
1394.0244,0.148720
1395.8880,0.145326
1397.7517,0.139183
1399.6154,0.132237
1401.4790,0.125332
1403.3427,0.118825
1405.2064,0.109639
1407.0700,0.097483
1408.9337,0.085528
1410.7974,0.074782
1412.6610,0.067283
1414.5247,0.063912
1416.3884,0.064038
1418.2520,0.067905
1420.1157,0.074087
1421.9794,0.076553
1423.8431,0.074998
1425.7067,0.068862
1427.5704,0.062044
1429.4341,0.058019
1431.2977,0.056462
1433.1614,0.056246
1435.0251,0.057313
1436.8887,0.060163
1438.7524,0.061563
1440.6161,0.061690
1442.4797,0.062627
1444.3434,0.063495
1446.2071,0.064227
1448.0707,0.064750
1449.9344,0.063682
1451.7981,0.061396
1453.6618,0.059162
1455.5254,0.058927
1457.3891,0.062363
1459.2528,0.063379
1461.1164,0.061959
1462.9801,0.061594
1464.8438,0.061886
1466.7074,0.060916
1468.5711,0.058867
1470.4348,0.057574
1472.2984,0.057818
1474.1621,0.058239
1476.0258,0.057733
1477.8895,0.057404
1479.7531,0.057148
1481.6168,0.057342
1483.4805,0.057451
1485.3441,0.057475
1487.2078,0.058064
1489.0715,0.059727
1490.9351,0.061073
1492.7988,0.060481
1494.6625,0.060316
1496.5261,0.062181
1498.3898,0.063990
1500.2535,0.064118
1502.1171,0.063342
1503.9808,0.062786
1505.8445,0.065108
1507.7082,0.071009
1509.5718,0.070303
1511.4355,0.069404
1513.2992,0.069711
1515.1628,0.070414
1517.0265,0.071785
1518.8902,0.072580
1520.7538,0.073983
1522.6175,0.076429
1524.4812,0.076332
1526.3448,0.077102
1528.2085,0.077821
1530.0722,0.077652
1531.9359,0.078536
1533.7995,0.080883
1535.6632,0.080778
1537.5269,0.080185
1539.3905,0.083686
1541.2542,0.089371
1543.1179,0.090047
1544.9815,0.090875
1546.8452,0.091155
1548.7089,0.091849
1550.5725,0.093909
1552.4362,0.095303
1554.2999,0.096307
1556.1635,0.097704
1558.0272,0.102063
1559.8909,0.112454
1561.7546,0.109660
1563.6182,0.107916
1565.4819,0.109359
1567.3456,0.111340
1569.2092,0.114520
1571.0729,0.117612
1572.9366,0.117803
1574.8002,0.120221
1576.6639,0.125880
1578.5276,0.127962
1580.3912,0.127999
1582.2549,0.129747
1584.1186,0.131261
1585.9822,0.132368
1587.8459,0.133130
1589.7096,0.133357
1591.5733,0.132927
1593.4369,0.132300
1595.3006,0.131429
1597.1643,0.130223
1599.0279,0.128618
1600.8916,0.126783
1602.7553,0.125011
1604.6189,0.123604
1606.4826,0.122356
1608.3463,0.121016
1610.2099,0.119220
1612.0736,0.116806
1613.9373,0.114016
1615.8010,0.111431
1617.6646,0.107290
1619.5283,0.102271
1621.3920,0.098332
1623.2556,0.093843
1625.1193,0.088594
1626.9830,0.083473
1628.8466,0.077510
1630.7103,0.071280
1632.5740,0.066019
1634.4376,0.061474
1636.3013,0.056795
1638.1650,0.053549
1640.0286,0.052556
1641.8923,0.051884
1643.7560,0.051970
1645.6197,0.053573
1647.4833,0.056041
1649.3470,0.056195
1651.2107,0.056957
1653.0743,0.061576
1654.9380,0.065165
1656.8017,0.063774
1658.6653,0.063831
1660.5290,0.064211
1662.3927,0.064290
1664.2563,0.063164
1666.1200,0.061505
1667.9837,0.060573
1669.8474,0.060103
1671.7110,0.059328
1673.5747,0.059600
1675.4384,0.061434
1677.3020,0.063111
1679.1657,0.064106
1681.0294,0.066477
1682.8930,0.069694
1684.7567,0.074666
1686.6204,0.075267
1688.4840,0.073826
1690.3477,0.072581
1692.2114,0.070322
1694.0750,0.068032
1695.9387,0.065642
1697.8024,0.062435
1699.6661,0.060175
1701.5297,0.055697
1703.3934,0.051284
1705.2571,0.046477
1707.1207,0.040490
1708.9844,0.036243
1710.8481,0.033085
1712.7117,0.030315
1714.5754,0.028576
1716.4391,0.027342
1718.3027,0.026886
1720.1664,0.026214
1722.0301,0.025378
1723.8937,0.024200
1725.7574,0.022796
1727.6211,0.021443
1729.4848,0.020366
1731.3484,0.019324
1733.2121,0.018842
1735.0758,0.018421
1736.9394,0.017818
1738.8031,0.017570
1740.6668,0.017552
1742.5304,0.017189
1744.3941,0.016793
1746.2578,0.016436
1748.1214,0.016418
1749.9851,0.016449
1751.8488,0.016495
1753.7125,0.016044
1755.5761,0.015822
1757.4398,0.015985
1759.3035,0.015997
1761.1671,0.015991
1763.0308,0.016064
1764.8945,0.015723
1766.7581,0.015636
1768.6218,0.015687
1770.4855,0.015793
1772.3491,0.015977
1774.2128,0.015969
1776.0765,0.015725
1777.9401,0.015735
1779.8038,0.015789
1781.6675,0.016038
1783.5312,0.016081
1785.3948,0.016100
1787.2585,0.015922
1789.1222,0.015851
1790.9858,0.016234
1792.8495,0.016651
1794.7132,0.016065
1796.5768,0.015708
1798.4405,0.015956
1800.3042,0.016325
1802.1678,0.016290
1804.0315,0.016171
1805.8952,0.016068
1807.7589,0.016171
1809.6225,0.016325
1811.4862,0.016551
1813.3499,0.016383
1815.2135,0.016156
1817.0772,0.016173
1818.9409,0.016257
1820.8045,0.016272
1822.6682,0.016355
1824.5319,0.016106
1826.3955,0.016057
1828.2592,0.015959
1830.1229,0.016023
1831.9865,0.015895
1833.8502,0.015826
1835.7139,0.015899
1837.5776,0.016041
1839.4412,0.015909
1841.3049,0.015827
1843.1686,0.016087
1845.0322,0.016451
1846.8959,0.016157
1848.7596,0.016044
1850.6232,0.016164
1852.4869,0.016210
1854.3506,0.016229
1856.2142,0.016373
1858.0779,0.016462
1859.9416,0.016458
1861.8052,0.016272
1863.6689,0.016198
1865.5326,0.016334
1867.3963,0.016566
1869.2599,0.016242
1871.1236,0.016229
1872.9873,0.016363
1874.8509,0.016386
1876.7146,0.016353
1878.5783,0.016490
1880.4419,0.016266
1882.3056,0.016229
1884.1693,0.016312
1886.0329,0.016145
1887.8966,0.015806
1889.7603,0.016107
1891.6240,0.016176
1893.4876,0.015910
1895.3513,0.015861
1897.2150,0.015948
1899.0786,0.015933
1900.9423,0.016165
1902.8060,0.016198
1904.6696,0.016234
1906.5333,0.016340
1908.3970,0.016680
1910.2606,0.016673
1912.1243,0.016530
1913.9880,0.016437
1915.8516,0.016492
1917.7153,0.016260
1919.5790,0.015852
1921.4427,0.015688
1923.3063,0.015574
1925.1700,0.015324
1927.0337,0.015404
1928.8973,0.015271
1930.7610,0.015429
1932.6247,0.015585
1934.4883,0.015567
1936.3520,0.015210
1938.2157,0.015435
1940.0793,0.015331
1941.9430,0.015367
1943.8067,0.015025
1945.6704,0.014235
1947.5340,0.013431
1949.3977,0.013707
1951.2614,0.013857
1953.1250,0.014155
1954.9887,0.013760
1956.8524,0.013040
1958.7160,0.012551
1960.5797,0.012756
1962.4434,0.012356
1964.3070,0.010108
1966.1707,0.008159
1968.0344,0.008724
1969.8980,0.009298
1971.7617,0.008652
1973.6254,0.008985
1975.4891,0.009924
1977.3527,0.009625
1979.2164,0.009802
1981.0801,0.009631
1982.9437,0.009914
1984.8074,0.011065
1986.6711,0.012136
1988.5347,0.012702
1990.3984,0.012760
1992.2621,0.011594
1994.1257,0.011519
1995.9894,0.010822
1997.8531,0.010715
1999.7167,0.011320
2001.5804,0.012305
2003.4441,0.012678
2005.3078,0.011477
2007.1714,0.009323
2009.0351,0.008852
2010.8988,0.008145
2012.7624,0.008745
2014.6261,0.009995
2016.4898,0.009769
2018.3534,0.009188
2020.2171,0.010356
2022.0808,0.010835
2023.9444,0.010581
2025.8081,0.009625
2027.6718,0.009760
2029.5355,0.009350
2031.3991,0.009079
2033.2628,0.008256
2035.1265,0.009247
2036.9901,0.009670
2038.8538,0.009590
2040.7175,0.010483
2042.5811,0.011217
2044.4448,0.011433
2046.3085,0.012805
2048.1721,0.013192
2050.0358,0.013532
2051.8995,0.014181
2053.7631,0.014420
2055.6268,0.014957
2057.4905,0.015260
2059.3542,0.015530
2061.2178,0.015884
2063.0815,0.016222
2064.9452,0.017201
2066.8088,0.017175
2068.6725,0.016043
2070.5362,0.015742
2072.3998,0.017258
2074.2635,0.017026
2076.1272,0.016445
2077.9908,0.017269
2079.8545,0.018269
2081.7182,0.017943
2083.5819,0.018076
2085.4455,0.018348
2087.3092,0.018471
2089.1729,0.018519
2091.0365,0.017987
2092.9002,0.017943
2094.7639,0.018084
2096.6275,0.018113
2098.4912,0.018127
2100.3549,0.017885
2102.2185,0.018475
2104.0822,0.018731
2105.9459,0.019018
2107.8095,0.019047
2109.6732,0.018625
2111.5369,0.018566
2113.4006,0.018904
2115.2642,0.019256
2117.1279,0.019022
2118.9916,0.018724
2120.8552,0.018829
2122.7189,0.018046
2124.5826,0.017845
2126.4462,0.018023
2128.3099,0.018118
2130.1736,0.018048
2132.0372,0.017576
2133.9009,0.016987
2135.7646,0.016865
2137.6282,0.016689
2139.4919,0.016493
2141.3556,0.016294
2143.2193,0.016516
2145.0829,0.015341
2146.9466,0.014869
2148.8103,0.014749
2150.6739,0.013652
2152.5376,0.011967
2154.4013,0.010098
2156.2649,0.009408
2158.1286,0.009459
2159.9923,0.008993
2161.8559,0.009624
2163.7196,0.011645
2165.5833,0.012850
2167.4470,0.012995
2169.3106,0.013929
2171.1743,0.013129
2173.0380,0.012668
2174.9016,0.012547
2176.7653,0.013043
2178.6290,0.013957
2180.4926,0.015150
2182.3563,0.014777
2184.2200,0.014350
2186.0836,0.013661
2187.9473,0.014130
2189.8110,0.014605
2191.6746,0.015696
2193.5383,0.016056
2195.4020,0.015423
2197.2657,0.015642
2199.1293,0.015982
2200.9930,0.016378
2202.8567,0.016629
2204.7203,0.016465
2206.5840,0.017095
2208.4477,0.017069
2210.3113,0.016188
2212.1750,0.016274
2214.0387,0.017660
2215.9023,0.017900
2217.7660,0.017314
2219.6297,0.016644
2221.4934,0.017247
2223.3570,0.018237
2225.2207,0.018836
2227.0844,0.018940
2228.9480,0.018979
2230.8117,0.019344
2232.6754,0.019477
2234.5390,0.019860
2236.4027,0.019698
2238.2664,0.019126
2240.1300,0.020017
2241.9937,0.020829
2243.8574,0.021172
2245.7210,0.021024
2247.5847,0.020602
2249.4484,0.020168
2251.3121,0.020535
2253.1757,0.020876
2255.0394,0.020635
2256.9031,0.020436
2258.7667,0.021442
2260.6304,0.022293
2262.4941,0.022119
2264.3577,0.021794
2266.2214,0.021949
2268.0851,0.022058
2269.9487,0.022300
2271.8124,0.022918
2273.6761,0.023391
2275.5397,0.023302
2277.4034,0.023260
2279.2671,0.023759
2281.1308,0.024017
2282.9944,0.024176
2284.8581,0.024558
2286.7218,0.024856
2288.5854,0.025016
2290.4491,0.024992
2292.3128,0.024841
2294.1764,0.024695
2296.0401,0.024683
2297.9038,0.024799
2299.7674,0.024998
2301.6311,0.025185
2303.4948,0.025174
2305.3585,0.025179
2307.2221,0.025341
2309.0858,0.025284
2310.9495,0.025340
2312.8131,0.025181
2314.6768,0.025262
2316.5405,0.025743
2318.4041,0.025837
2320.2678,0.025976
2322.1315,0.026119
2323.9951,0.025922
2325.8588,0.025687
2327.7225,0.025434
2329.5861,0.025087
2331.4498,0.024711
2333.3135,0.024449
2335.1772,0.024438
2337.0408,0.024827
2338.9045,0.025211
2340.7682,0.025102
2342.6318,0.025308
2344.4955,0.025829
2346.3592,0.025642
2348.2228,0.024932
2350.0865,0.024671
2351.9502,0.024424
2353.8138,0.024048
2355.6775,0.024296
2357.5412,0.024520
2359.4049,0.024493
2361.2685,0.024473
2363.1322,0.024806
2364.9959,0.025124
2366.8595,0.025192
2368.7232,0.025311
2370.5869,0.025716
2372.4505,0.025860
2374.3142,0.025908
2376.1779,0.025796
2378.0415,0.025812
2379.9052,0.025702
2381.7689,0.025585
2383.6325,0.025537
2385.4962,0.025643
2387.3599,0.025803
2389.2236,0.025865
2391.0872,0.025895
2392.9509,0.025963
2394.8146,0.026052
2396.6782,0.026067
2398.5419,0.026088
2400.4056,0.025825
2402.2692,0.025676
2404.1329,0.026017
2405.9966,0.026158
2407.8602,0.026276
2409.7239,0.026152
2411.5876,0.026011
2413.4512,0.026128
2415.3149,0.026095
2417.1786,0.026394
2419.0423,0.026601
2420.9059,0.026618
2422.7696,0.026821
2424.6333,0.027056
2426.4969,0.027277
2428.3606,0.027294
2430.2243,0.027202
2432.0879,0.027134
2433.9516,0.027105
2435.8153,0.026993
2437.6789,0.026762
2439.5426,0.026479
2441.4063,0.026707
2443.2700,0.027247
2445.1336,0.027120
2446.9973,0.026869
2448.8610,0.026851
2450.7246,0.026967
2452.5883,0.027155
2454.4520,0.027253
2456.3156,0.026937
2458.1793,0.027128
2460.0430,0.027519
2461.9066,0.027294
2463.7703,0.026965
2465.6340,0.026931
2467.4976,0.027098
2469.3613,0.027146
2471.2250,0.027052
2473.0887,0.026692
2474.9523,0.026896
2476.8160,0.027118
2478.6797,0.027008
2480.5433,0.027187
2482.4070,0.027495
2484.2707,0.027216
2486.1343,0.027100
2487.9980,0.027464
2489.8617,0.027709
2491.7253,0.027846
2493.5890,0.027911
2495.4527,0.028026
2497.3164,0.027973
2499.1800,0.028057
2501.0437,0.028451
2502.9074,0.028494
2504.7710,0.028084
2506.6347,0.027873
2508.4984,0.028350
2510.3620,0.028362
2512.2257,0.028138
2514.0894,0.028294
2515.9530,0.028386
2517.8167,0.028408
2519.6804,0.028600
2521.5440,0.028486
2523.4077,0.028201
2525.2714,0.028438
2527.1351,0.028771
