Wavenumber,Intensity
650.4205,0.224738
652.2841,0.218586
654.1478,0.213855
656.0115,0.211325
657.8751,0.209203
659.7388,0.205345
661.6025,0.201426
663.4661,0.198359
665.3298,0.196197
667.1935,0.194352
669.0571,0.196540
670.9208,0.194924
672.7845,0.193309
674.6481,0.193210
676.5118,0.194342
678.3755,0.194257
680.2392,0.195091
682.1028,0.195575
683.9665,0.195830
685.8302,0.195855
687.6938,0.195429
689.5575,0.193366
691.4212,0.194017
693.2848,0.196530
695.1485,0.196972
697.0122,0.196515
698.8758,0.199124
700.7395,0.200902
702.6032,0.200395
704.4669,0.198042
706.3305,0.193571
708.1942,0.187003
710.0579,0.179375
711.9215,0.171347
713.7852,0.163793
715.6489,0.156547
717.5125,0.149812
719.3762,0.144159
721.2399,0.139355
723.1035,0.133859
724.9672,0.128674
726.8309,0.124459
728.6945,0.120700
730.5582,0.117013
732.4219,0.113590
734.2856,0.109970
736.1492,0.107275
738.0129,0.105830
739.8766,0.106120
741.7402,0.108342
743.6039,0.110733
745.4676,0.111882
747.3312,0.112376
749.1949,0.112186
751.0586,0.111811
752.9222,0.111401
754.7859,0.110560
756.6496,0.110079
758.5132,0.109938
760.3769,0.109580
762.2406,0.109203
764.1043,0.108603
765.9679,0.107462
767.8316,0.106053
769.6953,0.105079
771.5589,0.104235
773.4226,0.103143
775.2863,0.102406
777.1499,0.102123
779.0136,0.101995
780.8773,0.102219
782.7409,0.102854
784.6046,0.104042
786.4683,0.104843
788.3320,0.105852
790.1956,0.107473
792.0593,0.109005
793.9230,0.110411
795.7866,0.111977
797.6503,0.113678
799.5140,0.114801
801.3776,0.114968
803.2413,0.115295
805.1050,0.115327
806.9686,0.114345
808.8323,0.112620
810.6960,0.110490
812.5596,0.107963
814.4233,0.105274
816.2870,0.102345
818.1507,0.099493
820.0143,0.097349
821.8780,0.096109
823.7417,0.095916
825.6053,0.096623
827.4690,0.098203
829.3327,0.099437
831.1963,0.095330
833.0600,0.085445
834.9237,0.076668
836.7873,0.072830
838.6510,0.072096
840.5147,0.072125
842.3784,0.072121
844.2420,0.072062
846.1057,0.072009
847.9694,0.071893
849.8330,0.071733
851.6967,0.071738
853.5604,0.071917
855.4240,0.072210
857.2877,0.072525
859.1514,0.072516
861.0150,0.071944
862.8787,0.071123
864.7424,0.070486
866.6060,0.069479
868.4697,0.068221
870.3334,0.067335
872.1971,0.066544
874.0607,0.066045
875.9244,0.065886
877.7881,0.065808
879.6517,0.066097
881.5154,0.066857
883.3791,0.067501
885.2427,0.068266
887.1064,0.069219
888.9701,0.070205
890.8337,0.071362
892.6974,0.072723
894.5611,0.073897
896.4247,0.075101
898.2884,0.076753
900.1521,0.078619
902.0158,0.080754
903.8794,0.083714
905.7431,0.087655
907.6068,0.092422
909.4704,0.098036
911.3341,0.104852
913.1978,0.112411
915.0614,0.116330
916.9251,0.109949
918.7888,0.096339
920.6524,0.085588
922.5161,0.080946
924.3798,0.079843
926.2435,0.079849
928.1071,0.080069
929.9708,0.080267
931.8345,0.080405
933.6981,0.080715
935.5618,0.080957
937.4255,0.080870
939.2891,0.080829
941.1528,0.080946
943.0165,0.081122
944.8801,0.081540
946.7438,0.082287
948.6075,0.083576
950.4711,0.085231
952.3348,0.087076
954.1985,0.089248
956.0622,0.091706
957.9258,0.094490
959.7895,0.097509
961.6532,0.100644
963.5168,0.104077
965.3805,0.107957
967.2442,0.112552
969.1078,0.117813
970.9715,0.123449
972.8352,0.129768
974.6988,0.138150
976.5625,0.150394
978.4262,0.168805
980.2899,0.193089
982.1535,0.204040
984.0172,0.181142
985.8809,0.150459
987.7445,0.137568
989.6082,0.136627
991.4719,0.138091
993.3355,0.139545
995.1992,0.140693
997.0629,0.141309
998.9265,0.141393
1000.7902,0.141379
1002.6539,0.141265
1004.5175,0.141067
1006.3812,0.141183
1008.2449,0.141605
1010.1086,0.141888
1011.9722,0.142059
1013.8359,0.142116
1015.6996,0.141945
1017.5632,0.141376
1019.4269,0.140400
1021.2906,0.139135
1023.1542,0.137851
1025.0179,0.136469
1026.8816,0.134959
1028.7452,0.133599
1030.6089,0.132566
1032.4726,0.131957
1034.3362,0.131900
1036.1999,0.132552
1038.0636,0.133997
1039.9273,0.135963
1041.7909,0.138281
1043.6546,0.140785
1045.5183,0.142957
1047.3819,0.143886
1049.2456,0.141671
1051.1093,0.134567
1052.9729,0.123796
1054.8366,0.113120
1056.7003,0.105477
1058.5639,0.101074
1060.4276,0.098694
1062.2913,0.097327
1064.1550,0.096838
1066.0186,0.097771
1067.8823,0.100476
1069.7460,0.104796
1071.6096,0.110116
1073.4733,0.115244
1075.3370,0.119014
1077.2006,0.121094
1079.0643,0.121816
1080.9280,0.121905
1082.7916,0.121867
1084.6553,0.121897
1086.5190,0.122227
1088.3826,0.123153
1090.2463,0.124791
1092.1100,0.127169
1093.9737,0.130509
1095.8373,0.134965
1097.7010,0.140482
1099.5647,0.146453
1101.4283,0.152327
1103.2920,0.157519
1105.1557,0.160635
1107.0193,0.160111
1108.8830,0.154902
1110.7467,0.145383
1112.6103,0.133628
1114.4740,0.121679
1116.3377,0.111123
1118.2014,0.102823
1120.0650,0.096813
1121.9287,0.092812
1123.7924,0.090155
1125.6560,0.088049
1127.5197,0.086021
1129.3834,0.083909
1131.2470,0.081992
1133.1107,0.080720
1134.9744,0.080242
1136.8380,0.080472
1138.7017,0.081421
1140.5654,0.082898
1142.4290,0.084475
1144.2927,0.085850
1146.1564,0.086834
1148.0201,0.087456
1149.8837,0.087705
1151.7474,0.087409
1153.6111,0.086683
1155.4747,0.085636
1157.3384,0.084395
1159.2021,0.083176
1161.0657,0.082071
1162.9294,0.081165
1164.7931,0.080646
1166.6567,0.080795
1168.5204,0.081675
1170.3841,0.082921
1172.2477,0.083465
1174.1114,0.081731
1175.9751,0.077318
1177.8388,0.071910
1179.7024,0.067522
1181.5661,0.064949
1183.4298,0.063778
1185.2934,0.063448
1187.1571,0.063596
1189.0208,0.063939
1190.8844,0.064321
1192.7481,0.064681
1194.6118,0.065133
1196.4754,0.065704
1198.3391,0.066278
1200.2028,0.066883
1202.0665,0.067490
1203.9301,0.067984
1205.7938,0.068398
1207.6575,0.068704
1209.5211,0.068909
1211.3848,0.069107
1213.2485,0.069405
1215.1121,0.069780
1216.9758,0.070235
1218.8395,0.070825
1220.7031,0.071476
1222.5668,0.072123
1224.4305,0.072834
1226.2941,0.073584
1228.1578,0.074282
1230.0215,0.075055
1231.8852,0.075859
1233.7488,0.076575
1235.6125,0.077280
1237.4762,0.077963
1239.3398,0.078550
1241.2035,0.079181
1243.0672,0.079910
1244.9308,0.080483
1246.7945,0.080860
1248.6582,0.081392
1250.5218,0.082083
1252.3855,0.082708
1254.2492,0.083385
1256.1129,0.084151
1257.9765,0.084935
1259.8402,0.085851
1261.7039,0.086842
1263.5675,0.087791
1265.4312,0.088673
1267.2949,0.089226
1269.1585,0.089255
1271.0222,0.089145
1272.8859,0.089275
1274.7495,0.089708
1276.6132,0.090605
1278.4769,0.091855
1280.3405,0.093322
1282.2042,0.095047
1284.0679,0.096958
1285.9316,0.099087
1287.7952,0.101554
1289.6589,0.104309
1291.5226,0.107397
1293.3862,0.111072
1295.2499,0.115411
1297.1136,0.120503
1298.9772,0.126510
1300.8409,0.133567
1302.7046,0.140973
1304.5682,0.146258
1306.4319,0.145507
1308.2956,0.135001
1310.1592,0.116052
1312.0229,0.096959
1313.8866,0.084712
1315.7503,0.080228
1317.6139,0.080425
1319.4776,0.082481
1321.3413,0.084928
1323.2049,0.087536
1325.0686,0.090466
1326.9323,0.093488
1328.7959,0.096338
1330.6596,0.098854
1332.5233,0.100721
1334.3869,0.101873
1336.2506,0.102767
1338.1143,0.104130
1339.9780,0.105834
1341.8416,0.106193
1343.7053,0.105786
1345.5690,0.106091
1347.4326,0.106902
1349.2963,0.108106
1351.1600,0.109544
1353.0236,0.111262
1354.8873,0.113543
1356.7510,0.115763
1358.6146,0.117550
1360.4783,0.120140
1362.3420,0.124608
1364.2056,0.128206
1366.0693,0.129604
1367.9330,0.132309
1369.7967,0.135696
1371.6603,0.138256
1373.5240,0.142340
1375.3877,0.147002
1377.2513,0.149793
1379.1150,0.153514
1380.9787,0.158407
1382.8423,0.163351
1384.7060,0.168673
1386.5697,0.176069
1388.4333,0.184400
1390.2970,0.188182
1392.1607,0.189793
1394.0244,0.190444
1395.8880,0.186281
1397.7517,0.178195
1399.6154,0.168795
1401.4790,0.159567
1403.3427,0.151480
1405.2064,0.140173
1407.0700,0.124570
1408.9337,0.108714
1410.7974,0.094327
1412.6610,0.084238
1414.5247,0.079450
1416.3884,0.079233
1418.2520,0.084141
1420.1157,0.092315
1421.9794,0.095581
1423.8431,0.093591
1425.7067,0.085691
1427.5704,0.076763
1429.4341,0.071377
1431.2977,0.069208
1433.1614,0.068729
1435.0251,0.070009
1436.8887,0.073667
1438.7524,0.075431
1440.6161,0.075511
1442.4797,0.076738
1444.3434,0.077986
1446.2071,0.079021
1448.0707,0.079738
1449.9344,0.078336
1451.7981,0.075386
1453.6618,0.072457
1455.5254,0.071897
1457.3891,0.076161
1459.2528,0.077730
1461.1164,0.075905
1462.9801,0.075439
1464.8438,0.075988
1466.7074,0.074862
1468.5711,0.072188
1470.4348,0.070652
1472.2984,0.071328
1474.1621,0.071994
1476.0258,0.071195
1477.8895,0.070577
1479.7531,0.070127
1481.6168,0.070447
1483.4805,0.070511
1485.3441,0.070422
1487.2078,0.071366
1489.0715,0.073720
1490.9351,0.075513
1492.7988,0.074762
1494.6625,0.074437
1496.5261,0.076769
1498.3898,0.079089
1500.2535,0.079086
1502.1171,0.078034
1503.9808,0.077532
1505.8445,0.080657
1507.7082,0.088296
1509.5718,0.087309
1511.4355,0.085998
1513.2992,0.086413
1515.1628,0.087286
1517.0265,0.089067
1518.8902,0.090306
1520.7538,0.092201
1522.6175,0.095384
1524.4812,0.095174
1526.3448,0.096184
1528.2085,0.097204
1530.0722,0.096810
1531.9359,0.097732
1533.7995,0.100846
1535.6632,0.101028
1537.5269,0.100235
1539.3905,0.104655
1541.2542,0.112350
1543.1179,0.112792
1544.9815,0.113583
1546.8452,0.114256
1548.7089,0.115430
1550.5725,0.118250
1552.4362,0.119968
1554.2999,0.121262
1556.1635,0.123527
1558.0272,0.129602
1559.8909,0.142630
1561.7546,0.138658
1563.6182,0.136495
1565.4819,0.138446
1567.3456,0.141099
1569.2092,0.145543
1571.0729,0.149945
1572.9366,0.150030
1574.8002,0.152960
1576.6639,0.160511
1578.5276,0.163384
1580.3912,0.163428
1582.2549,0.165586
1584.1186,0.167791
1585.9822,0.169508
1587.8459,0.170491
1589.7096,0.171005
1591.5733,0.170724
1593.4369,0.169845
1595.3006,0.168554
1597.1643,0.166897
1599.0279,0.164670
1600.8916,0.162330
1602.7553,0.160044
1604.6189,0.157866
1606.4826,0.155994
1608.3463,0.154302
1610.2099,0.152037
1612.0736,0.148891
1613.9373,0.145282
1615.8010,0.141981
1617.6646,0.136447
1619.5283,0.129124
1621.3920,0.123864
1623.2556,0.118602
1625.1193,0.112009
1626.9830,0.105431
1628.8466,0.097820
1630.7103,0.089457
1632.5740,0.082664
1634.4376,0.076971
1636.3013,0.071118
1638.1650,0.066569
1640.0286,0.064839
1641.8923,0.063871
1643.7560,0.063981
1645.6197,0.065815
1647.4833,0.069044
1649.3470,0.069931
1651.2107,0.071074
1653.0743,0.077181
1654.9380,0.081519
1656.8017,0.079289
1658.6653,0.079284
1660.5290,0.079851
1662.3927,0.080061
1664.2563,0.078881
1666.1200,0.076858
1667.9837,0.075422
1669.8474,0.074713
1671.7110,0.073810
1673.5747,0.073938
1675.4384,0.076060
1677.3020,0.078437
1679.1657,0.080103
1681.0294,0.083388
1682.8930,0.087557
1684.7567,0.093833
1686.6204,0.094666
1688.4840,0.092798
1690.3477,0.091099
1692.2114,0.088196
1694.0750,0.085117
1695.9387,0.082023
1697.8024,0.078382
1699.6661,0.075818
1701.5297,0.069978
1703.3934,0.063932
1705.2571,0.057724
1707.1207,0.049997
1708.9844,0.044280
1710.8481,0.040016
1712.7117,0.036422
1714.5754,0.034218
1716.4391,0.032926
1718.3027,0.032459
1720.1664,0.031174
1722.0301,0.029962
1723.8937,0.028500
1725.7574,0.026625
1727.6211,0.024780
1729.4848,0.023413
1731.3484,0.022177
1733.2121,0.021612
1735.0758,0.021067
1736.9394,0.020199
1738.8031,0.019877
1740.6668,0.019732
1742.5304,0.019075
1744.3941,0.018756
1746.2578,0.018454
1748.1214,0.018430
1749.9851,0.018452
1751.8488,0.018227
1753.7125,0.017618
1755.5761,0.017310
1757.4398,0.017224
1759.3035,0.017126
1761.1671,0.017221
1763.0308,0.017440
1764.8945,0.016998
1766.7581,0.016822
1768.6218,0.016708
1770.4855,0.016596
1772.3491,0.016735
1774.2128,0.016785
1776.0765,0.016571
1777.9401,0.016747
1779.8038,0.016899
1781.6675,0.017072
1783.5312,0.016961
1785.3948,0.016971
1787.2585,0.016795
1789.1222,0.016646
1790.9858,0.016668
1792.8495,0.016986
1794.7132,0.016948
1796.5768,0.016861
1798.4405,0.016823
1800.3042,0.016890
1802.1678,0.016860
1804.0315,0.016890
1805.8952,0.016927
1807.7589,0.016954
1809.6225,0.016918
1811.4862,0.017092
1813.3499,0.016949
1815.2135,0.016734
1817.0772,0.016679
1818.9409,0.016792
1820.8045,0.016844
1822.6682,0.016951
1824.5319,0.016926
1826.3955,0.016995
1828.2592,0.016842
1830.1229,0.016750
1831.9865,0.016448
1833.8502,0.016240
1835.7139,0.016139
1837.5776,0.016414
1839.4412,0.016482
1841.3049,0.016441
1843.1686,0.016558
1845.0322,0.016976
1846.8959,0.016684
1848.7596,0.016666
1850.6232,0.016746
1852.4869,0.016615
1854.3506,0.016742
1856.2142,0.016942
1858.0779,0.017026
1859.9416,0.017089
1861.8052,0.016959
1863.6689,0.016798
1865.5326,0.016779
1867.3963,0.017044
1869.2599,0.016924
1871.1236,0.016802
1872.9873,0.016526
1874.8509,0.016668
1876.7146,0.016863
1878.5783,0.017025
1880.4419,0.017121
1882.3056,0.016905
1884.1693,0.016401
1886.0329,0.016465
1887.8966,0.016448
1889.7603,0.016700
1891.6240,0.016660
1893.4876,0.016501
1895.3513,0.016410
1897.2150,0.016512
1899.0786,0.016611
1900.9423,0.016629
1902.8060,0.016664
1904.6696,0.016832
1906.5333,0.016403
1908.3970,0.016258
1910.2606,0.016244
1912.1243,0.016127
1913.9880,0.016294
1915.8516,0.016638
1917.7153,0.016851
1919.5790,0.016880
1921.4427,0.016372
1923.3063,0.016170
1925.1700,0.015738
1927.0337,0.015902
1928.8973,0.016079
1930.7610,0.016147
1932.6247,0.015986
1934.4883,0.015994
1936.3520,0.016123
1938.2157,0.016278
1940.0793,0.015857
1941.9430,0.015645
1943.8067,0.014546
1945.6704,0.014119
1947.5340,0.014204
1949.3977,0.014131
1951.2614,0.013737
1953.1250,0.013630
1954.9887,0.013105
1956.8524,0.012210
1958.7160,0.011496
1960.5797,0.011638
1962.4434,0.011423
1964.3070,0.010272
1966.1707,0.008944
1968.0344,0.008356
1969.8980,0.008545
1971.7617,0.009196
1973.6254,0.007986
1975.4891,0.007418
1977.3527,0.006904
1979.2164,0.008541
1981.0801,0.009892
1982.9437,0.010799
1984.8074,0.010963
1986.6711,0.012096
1988.5347,0.012645
1990.3984,0.012082
1992.2621,0.010566
1994.1257,0.011021
1995.9894,0.011869
1997.8531,0.011905
1999.7167,0.011612
2001.5804,0.012330
2003.4441,0.011982
2005.3078,0.010413
2007.1714,0.009324
2009.0351,0.010302
2010.8988,0.010135
2012.7624,0.008795
2014.6261,0.008233
2016.4898,0.008776
2018.3534,0.008588
2020.2171,0.008907
2022.0808,0.009445
2023.9444,0.009145
2025.8081,0.008826
2027.6718,0.009271
2029.5355,0.008677
2031.3991,0.009243
2033.2628,0.009252
2035.1265,0.009795
2036.9901,0.010049
2038.8538,0.010120
2040.7175,0.009592
2042.5811,0.010567
2044.4448,0.012116
2046.3085,0.013493
2048.1721,0.013687
2050.0358,0.013399
2051.8995,0.013992
2053.7631,0.014822
2055.6268,0.014775
2057.4905,0.015588
2059.3542,0.015932
2061.2178,0.015838
2063.0815,0.016137
2064.9452,0.016927
2066.8088,0.017195
2068.6725,0.017398
2070.5362,0.017244
2072.3998,0.017745
2074.2635,0.018551
2076.1272,0.018648
2077.9908,0.018258
2079.8545,0.018134
2081.7182,0.018223
2083.5819,0.018532
2085.4455,0.018129
2087.3092,0.017928
2089.1729,0.018835
2091.0365,0.019667
2092.9002,0.019207
2094.7639,0.018476
2096.6275,0.018660
2098.4912,0.019351
2100.3549,0.018952
2102.2185,0.018846
2104.0822,0.019132
2105.9459,0.019086
2107.8095,0.019517
2109.6732,0.020246
2111.5369,0.020317
2113.4006,0.020298
2115.2642,0.020143
2117.1279,0.020034
2118.9916,0.019782
2120.8552,0.020179
2122.7189,0.020175
2124.5826,0.019543
2126.4462,0.019435
2128.3099,0.019228
2130.1736,0.018578
2132.0372,0.018406
2133.9009,0.017900
2135.7646,0.017468
2137.6282,0.017592
2139.4919,0.017604
2141.3556,0.016220
2143.2193,0.014400
2145.0829,0.014454
2146.9466,0.015241
2148.8103,0.014787
2150.6739,0.013709
2152.5376,0.012252
2154.4013,0.011588
2156.2649,0.010248
2158.1286,0.008969
2159.9923,0.008726
2161.8559,0.010535
2163.7196,0.011614
2165.5833,0.012882
2167.4470,0.013166
2169.3106,0.013969
2171.1743,0.013335
2173.0380,0.011897
2174.9016,0.011442
2176.7653,0.013261
2178.6290,0.013686
2180.4926,0.013741
2182.3563,0.014899
2184.2200,0.015808
2186.0836,0.015551
2187.9473,0.015468
2189.8110,0.015519
2191.6746,0.016058
2193.5383,0.015989
2195.4020,0.016930
2197.2657,0.017657
2199.1293,0.016906
2200.9930,0.015881
2202.8567,0.016744
2204.7203,0.017587
2206.5840,0.017506
2208.4477,0.017867
2210.3113,0.018307
2212.1750,0.018769
2214.0387,0.019768
2215.9023,0.018897
2217.7660,0.018982
2219.6297,0.019841
2221.4934,0.020140
2223.3570,0.019846
2225.2207,0.019810
2227.0844,0.019687
2228.9480,0.020263
2230.8117,0.020508
2232.6754,0.020440
2234.5390,0.020874
2236.4027,0.021724
2238.2664,0.021717
2240.1300,0.020920
2241.9937,0.020901
2243.8574,0.021394
2245.7210,0.021541
2247.5847,0.021630
2249.4484,0.021536
2251.3121,0.021827
2253.1757,0.022194
2255.0394,0.022335
2256.9031,0.022603
2258.7667,0.023190
2260.6304,0.023049
2262.4941,0.022684
2264.3577,0.023044
2266.2214,0.023397
2268.0851,0.023742
2269.9487,0.024573
2271.8124,0.025010
2273.6761,0.025110
2275.5397,0.025370
2277.4034,0.025633
2279.2671,0.025597
2281.1308,0.026095
2282.9944,0.026407
2284.8581,0.026478
2286.7218,0.026909
2288.5854,0.027307
2290.4491,0.027313
2292.3128,0.026928
2294.1764,0.026507
2296.0401,0.026453
2297.9038,0.026864
2299.7674,0.027371
2301.6311,0.027470
2303.4948,0.027374
2305.3585,0.027312
2307.2221,0.027288
2309.0858,0.027328
2310.9495,0.027662
2312.8131,0.027857
2314.6768,0.027584
2316.5405,0.027683
2318.4041,0.027830
2320.2678,0.027741
2322.1315,0.027613
2323.9951,0.027550
2325.8588,0.027382
2327.7225,0.027140
2329.5861,0.027358
2331.4498,0.027227
2333.3135,0.026442
2335.1772,0.026299
2337.0408,0.026741
2338.9045,0.026708
2340.7682,0.026832
2342.6318,0.027139
2344.4955,0.027394
2346.3592,0.027437
2348.2228,0.026923
2350.0865,0.026217
2351.9502,0.026048
2353.8138,0.026187
2355.6775,0.025993
2357.5412,0.026115
2359.4049,0.026471
2361.2685,0.026217
2363.1322,0.025934
2364.9959,0.026289
2366.8595,0.026623
2368.7232,0.027150
2370.5869,0.027678
2372.4505,0.027749
2374.3142,0.027857
2376.1779,0.027876
2378.0415,0.027808
2379.9052,0.027812
2381.7689,0.028115
2383.6325,0.027828
2385.4962,0.027565
2387.3599,0.027529
2389.2236,0.027775
2391.0872,0.027895
2392.9509,0.027843
2394.8146,0.027861
2396.6782,0.027951
2398.5419,0.027893
2400.4056,0.027888
2402.2692,0.028083
2404.1329,0.028362
2405.9966,0.028552
2407.8602,0.028446
2409.7239,0.028440
2411.5876,0.028485
2413.4512,0.028237
2415.3149,0.028098
2417.1786,0.028226
2419.0423,0.028563
2420.9059,0.028732
2422.7696,0.029050
2424.6333,0.029441
2426.4969,0.029425
2428.3606,0.029181
2430.2243,0.028977
2432.0879,0.028866
2433.9516,0.028979
2435.8153,0.029263
2437.6789,0.029375
2439.5426,0.029367
2441.4063,0.029434
2443.2700,0.029424
2445.1336,0.029692
2446.9973,0.029622
2448.8610,0.029343
2450.7246,0.029408
2452.5883,0.029096
2454.4520,0.028910
2456.3156,0.029149
2458.1793,0.029273
2460.0430,0.029293
2461.9066,0.029240
2463.7703,0.029242
2465.6340,0.029100
2467.4976,0.029032
2469.3613,0.029296
2471.2250,0.029291
2473.0887,0.029360
2474.9523,0.029405
2476.8160,0.029544
2478.6797,0.029655
2480.5433,0.029504
2482.4070,0.029546
2484.2707,0.029886
2486.1343,0.029794
2487.9980,0.029750
2489.8617,0.030143
2491.7253,0.030415
2493.5890,0.030472
2495.4527,0.030215
2497.3164,0.030014
2499.1800,0.030475
2501.0437,0.030977
2502.9074,0.030851
2504.7710,0.030709
2506.6347,0.031199
2508.4984,0.031554
2510.3620,0.031371
2512.2257,0.031045
2514.0894,0.031309
2515.9530,0.031428
2517.8167,0.030992
2519.6804,0.031100
2521.5440,0.031551
2523.4077,0.031728
2525.2714,0.031587
2527.1351,0.031149
