Wavenumber,Intensity
650.4205,0.217276
652.2841,0.216570
654.1478,0.213228
656.0115,0.213638
657.8751,0.215490
659.7388,0.219099
661.6025,0.227278
663.4661,0.232864
665.3298,0.235141
667.1935,0.239886
669.0571,0.240494
670.9208,0.232486
672.7845,0.224229
674.6481,0.215449
676.5118,0.207294
678.3755,0.202406
680.2392,0.199388
682.1028,0.195994
683.9665,0.191585
685.8302,0.187741
687.6938,0.184868
689.5575,0.182226
691.4212,0.179948
693.2848,0.177202
695.1485,0.174224
697.0122,0.172182
698.8758,0.171293
700.7395,0.170737
702.6032,0.170020
704.4669,0.166934
706.3305,0.161436
708.1942,0.154838
710.0579,0.147696
711.9215,0.140672
713.7852,0.133805
715.6489,0.127658
717.5125,0.122331
719.3762,0.117682
721.2399,0.113707
723.1035,0.109964
724.9672,0.106619
726.8309,0.103371
728.6945,0.100400
730.5582,0.097811
732.4219,0.094903
734.2856,0.092494
736.1492,0.090795
738.0129,0.090235
739.8766,0.091749
741.7402,0.093998
743.6039,0.095613
745.4676,0.096632
747.3312,0.096914
749.1949,0.096093
751.0586,0.094552
752.9222,0.093216
754.7859,0.092567
756.6496,0.091611
758.5132,0.090682
760.3769,0.090410
762.2406,0.090102
764.1043,0.089706
765.9679,0.089259
767.8316,0.089219
769.6953,0.089946
771.5589,0.090502
773.4226,0.090553
775.2863,0.090777
777.1499,0.091330
779.0136,0.092439
780.8773,0.093769
782.7409,0.094650
784.6046,0.095383
786.4683,0.096519
788.3320,0.097876
790.1956,0.099361
792.0593,0.101049
793.9230,0.102727
795.7866,0.104525
797.6503,0.106365
799.5140,0.107850
801.3776,0.108970
803.2413,0.109720
805.1050,0.109956
806.9686,0.109542
808.8323,0.108714
810.6960,0.107347
812.5596,0.105002
814.4233,0.102282
816.2870,0.099695
818.1507,0.097500
820.0143,0.095567
821.8780,0.093854
823.7417,0.093041
825.6053,0.093296
827.4690,0.094935
829.3327,0.096180
831.1963,0.092255
833.0600,0.083285
834.9237,0.075666
836.7873,0.072306
838.6510,0.071123
840.5147,0.071004
842.3784,0.071544
844.2420,0.071924
846.1057,0.072048
847.9694,0.072189
849.8330,0.072490
851.6967,0.072844
853.5604,0.073034
855.4240,0.073361
857.2877,0.073891
859.1514,0.074263
861.0150,0.074497
862.8787,0.074917
864.7424,0.075356
866.6060,0.075717
868.4697,0.076175
870.3334,0.076805
872.1971,0.077589
874.0607,0.078273
875.9244,0.079081
877.7881,0.080172
879.6517,0.081149
881.5154,0.082009
883.3791,0.083028
885.2427,0.083976
887.1064,0.084710
888.9701,0.085659
890.8337,0.086683
892.6974,0.087738
894.5611,0.089197
896.4247,0.090745
898.2884,0.092245
900.1521,0.094053
902.0158,0.096182
903.8794,0.098883
905.7431,0.102382
907.6068,0.106351
909.4704,0.111195
911.3341,0.117877
913.1978,0.126334
915.0614,0.131925
916.9251,0.126950
918.7888,0.113627
920.6524,0.102940
922.5161,0.098866
924.3798,0.098357
926.2435,0.098997
928.1071,0.100021
929.9708,0.101290
931.8345,0.102796
933.6981,0.104364
935.5618,0.105761
937.4255,0.107187
939.2891,0.108583
941.1528,0.110037
943.0165,0.111555
944.8801,0.113058
946.7438,0.114638
948.6075,0.116119
950.4711,0.117482
952.3348,0.119042
954.1985,0.120792
956.0622,0.122606
957.9258,0.124557
959.7895,0.126660
961.6532,0.128796
963.5168,0.131085
965.3805,0.133748
967.2442,0.136837
969.1078,0.140250
970.9715,0.143842
972.8352,0.147828
974.6988,0.153523
976.5625,0.162232
978.4262,0.176165
980.2899,0.195554
982.1535,0.204985
984.0172,0.185652
985.8809,0.158053
987.7445,0.147197
989.6082,0.147611
991.4719,0.150218
993.3355,0.153212
995.1992,0.156236
997.0629,0.159124
998.9265,0.161964
1000.7902,0.164674
1002.6539,0.167054
1004.5175,0.169378
1006.3812,0.171710
1008.2449,0.173722
1010.1086,0.175327
1011.9722,0.176100
1013.8359,0.175820
1015.6996,0.174652
1017.5632,0.172652
1019.4269,0.169815
1021.2906,0.166257
1023.1542,0.162250
1025.0179,0.158049
1026.8816,0.154096
1028.7452,0.150768
1030.6089,0.147763
1032.4726,0.145088
1034.3362,0.142821
1036.1999,0.141017
1038.0636,0.139540
1039.9273,0.138349
1041.7909,0.137628
1043.6546,0.137383
1045.5183,0.137249
1047.3819,0.136208
1049.2456,0.132741
1051.1093,0.125650
1052.9729,0.115886
1054.8366,0.107037
1056.7003,0.101550
1058.5639,0.098889
1060.4276,0.097777
1062.2913,0.097444
1064.1550,0.097519
1066.0186,0.097889
1067.8823,0.098408
1069.7460,0.099113
1071.6096,0.100150
1073.4733,0.101300
1075.3370,0.102440
1077.2006,0.103426
1079.0643,0.104309
1080.9280,0.105149
1082.7916,0.106139
1084.6553,0.107349
1086.5190,0.108599
1088.3826,0.110062
1090.2463,0.112091
1092.1100,0.114654
1093.9737,0.117798
1095.8373,0.121448
1097.7010,0.125692
1099.5647,0.130519
1101.4283,0.135567
1103.2920,0.140125
1105.1557,0.143375
1107.0193,0.143924
1108.8830,0.140157
1110.7467,0.132045
1112.6103,0.121327
1114.4740,0.110207
1116.3377,0.100184
1118.2014,0.091915
1120.0650,0.085744
1121.9287,0.081397
1123.7924,0.078407
1125.6560,0.076174
1127.5197,0.074224
1129.3834,0.072261
1131.2470,0.070414
1133.1107,0.068983
1134.9744,0.068001
1136.8380,0.067205
1138.7017,0.066582
1140.5654,0.066300
1142.4290,0.066258
1144.2927,0.066276
1146.1564,0.066353
1148.0201,0.066534
1149.8837,0.066794
1151.7474,0.067006
1153.6111,0.067160
1155.4747,0.067356
1157.3384,0.067683
1159.2021,0.068094
1161.0657,0.068624
1162.9294,0.069391
1164.7931,0.070594
1166.6567,0.072369
1168.5204,0.074776
1170.3841,0.077481
1172.2477,0.079575
1174.1114,0.079391
1175.9751,0.076263
1177.8388,0.071868
1179.7024,0.068102
1181.5661,0.065864
1183.4298,0.064941
1185.2934,0.064679
1187.1571,0.064749
1189.0208,0.064969
1190.8844,0.065221
1192.7481,0.065509
1194.6118,0.065795
1196.4754,0.066176
1198.3391,0.066704
1200.2028,0.067286
1202.0665,0.067863
1203.9301,0.068357
1205.7938,0.068730
1207.6575,0.069014
1209.5211,0.069393
1211.3848,0.069885
1213.2485,0.070493
1215.1121,0.071139
1216.9758,0.071802
1218.8395,0.072430
1220.7031,0.073030
1222.5668,0.073567
1224.4305,0.074123
1226.2941,0.074546
1228.1578,0.074950
1230.0215,0.075363
1231.8852,0.075778
1233.7488,0.076181
1235.6125,0.076476
1237.4762,0.076773
1239.3398,0.077227
1241.2035,0.077523
1243.0672,0.077837
1244.9308,0.078308
1246.7945,0.078740
1248.6582,0.079135
1250.5218,0.079629
1252.3855,0.080058
1254.2492,0.080522
1256.1129,0.080966
1257.9765,0.081447
1259.8402,0.082137
1261.7039,0.082881
1263.5675,0.083512
1265.4312,0.084170
1267.2949,0.084650
1269.1585,0.084757
1271.0222,0.084633
1272.8859,0.084596
1274.7495,0.084782
1276.6132,0.085356
1278.4769,0.086286
1280.3405,0.087520
1282.2042,0.088770
1284.0679,0.090137
1285.9316,0.091607
1287.7952,0.093371
1289.6589,0.095408
1291.5226,0.097740
1293.3862,0.100443
1295.2499,0.103623
1297.1136,0.107422
1298.9772,0.111940
1300.8409,0.117347
1302.7046,0.123539
1304.5682,0.129155
1306.4319,0.131060
1308.2956,0.124346
1310.1592,0.108260
1312.0229,0.090447
1313.8866,0.078514
1315.7503,0.073777
1317.6139,0.073318
1319.4776,0.074444
1321.3413,0.076010
1323.2049,0.077860
1325.0686,0.080045
1326.9323,0.082269
1328.7959,0.084615
1330.6596,0.086874
1332.5233,0.088782
1334.3869,0.089898
1336.2506,0.090771
1338.1143,0.091926
1339.9780,0.093248
1341.8416,0.093562
1343.7053,0.093414
1345.5690,0.093751
1347.4326,0.094499
1349.2963,0.095612
1351.1600,0.096828
1353.0236,0.098294
1354.8873,0.100293
1356.7510,0.102245
1358.6146,0.104070
1360.4783,0.106429
1362.3420,0.110116
1364.2056,0.113336
1366.0693,0.115138
1367.9330,0.117997
1369.7967,0.121293
1371.6603,0.123780
1373.5240,0.127717
1375.3877,0.132106
1377.2513,0.134798
1379.1150,0.138447
1380.9787,0.143013
1382.8423,0.147686
1384.7060,0.153029
1386.5697,0.159823
1388.4333,0.167203
1390.2970,0.171215
1392.1607,0.173940
1394.0244,0.175346
1395.8880,0.172103
1397.7517,0.165046
1399.6154,0.156557
1401.4790,0.148476
1403.3427,0.141764
1405.2064,0.132217
1407.0700,0.118288
1408.9337,0.103874
1410.7974,0.090496
1412.6610,0.080885
1414.5247,0.076085
1416.3884,0.075944
1418.2520,0.079986
1420.1157,0.086916
1421.9794,0.089877
1423.8431,0.087898
1425.7067,0.080117
1427.5704,0.072348
1429.4341,0.068538
1431.2977,0.067582
1433.1614,0.067813
1435.0251,0.069495
1436.8887,0.072884
1438.7524,0.074492
1440.6161,0.074796
1442.4797,0.076175
1444.3434,0.077103
1446.2071,0.078057
1448.0707,0.078522
1449.9344,0.077103
1451.7981,0.074406
1453.6618,0.071979
1455.5254,0.071410
1457.3891,0.074720
1459.2528,0.074905
1461.1164,0.073752
1462.9801,0.074102
1464.8438,0.075163
1466.7074,0.074364
1468.5711,0.072672
1470.4348,0.072168
1472.2984,0.073455
1474.1621,0.074251
1476.0258,0.073761
1477.8895,0.073978
1479.7531,0.074227
1481.6168,0.075393
1483.4805,0.076090
1485.3441,0.076675
1487.2078,0.078493
1489.0715,0.081540
1490.9351,0.083993
1492.7988,0.083877
1494.6625,0.084365
1496.5261,0.087708
1498.3898,0.090273
1500.2535,0.090790
1502.1171,0.090415
1503.9808,0.090595
1505.8445,0.094530
1507.7082,0.102022
1509.5718,0.100741
1511.4355,0.100404
1513.2992,0.101251
1515.1628,0.102474
1517.0265,0.104660
1518.8902,0.105332
1520.7538,0.106683
1522.6175,0.109405
1524.4812,0.108699
1526.3448,0.110205
1528.2085,0.110727
1530.0722,0.110382
1531.9359,0.111547
1533.7995,0.114077
1535.6632,0.113300
1537.5269,0.112693
1539.3905,0.116494
1541.2542,0.121036
1543.1179,0.120750
1544.9815,0.121325
1546.8452,0.121324
1548.7089,0.121812
1550.5725,0.123393
1552.4362,0.123448
1554.2999,0.123929
1556.1635,0.124957
1558.0272,0.128700
1559.8909,0.136779
1561.7546,0.132971
1563.6182,0.132152
1565.4819,0.133720
1567.3456,0.135197
1569.2092,0.137890
1571.0729,0.140381
1572.9366,0.140324
1574.8002,0.143106
1576.6639,0.148032
1578.5276,0.149563
1580.3912,0.150036
1582.2549,0.152264
1584.1186,0.153796
1585.9822,0.155150
1587.8459,0.155810
1589.7096,0.156497
1591.5733,0.156285
1593.4369,0.156087
1595.3006,0.155259
1597.1643,0.154509
1599.0279,0.152911
1600.8916,0.151394
1602.7553,0.150041
1604.6189,0.149145
1606.4826,0.148093
1608.3463,0.147651
1610.2099,0.146711
1612.0736,0.145401
1613.9373,0.143315
1615.8010,0.141459
1617.6646,0.136844
1619.5283,0.131382
1621.3920,0.127950
1623.2556,0.124235
1625.1193,0.118369
1626.9830,0.113640
1628.8466,0.107550
1630.7103,0.100481
1632.5740,0.094413
1634.4376,0.089484
1636.3013,0.082875
1638.1650,0.078046
1640.0286,0.076568
1641.8923,0.075810
1643.7560,0.075881
1645.6197,0.077609
1647.4833,0.079596
1649.3470,0.080312
1651.2107,0.082070
1653.0743,0.086331
1654.9380,0.086811
1656.8017,0.085870
1658.6653,0.086052
1660.5290,0.085288
1662.3927,0.083638
1664.2563,0.080508
1666.1200,0.077764
1667.9837,0.076017
1669.8474,0.073378
1671.7110,0.070522
1673.5747,0.070123
1675.4384,0.071255
1677.3020,0.072190
1679.1657,0.073684
1681.0294,0.076862
1682.8930,0.080159
1684.7567,0.084432
1686.6204,0.083838
1688.4840,0.083232
1690.3477,0.081488
1692.2114,0.078179
1694.0750,0.075196
1695.9387,0.072109
1697.8024,0.067031
1699.6661,0.064028
1701.5297,0.057786
1703.3934,0.052191
1705.2571,0.047165
1707.1207,0.039710
1708.9844,0.034390
1710.8481,0.030911
1712.7117,0.028087
1714.5754,0.026464
1716.4391,0.024695
1718.3027,0.023257
1720.1664,0.022114
1722.0301,0.021866
1723.8937,0.021227
1725.7574,0.019581
1727.6211,0.018211
1729.4848,0.017265
1731.3484,0.016297
1733.2121,0.015345
1735.0758,0.013917
1736.9394,0.012846
1738.8031,0.013453
1740.6668,0.013309
1742.5304,0.012770
1744.3941,0.013002
1746.2578,0.012928
1748.1214,0.012865
1749.9851,0.012245
1751.8488,0.011780
1753.7125,0.011462
1755.5761,0.011725
1757.4398,0.012000
1759.3035,0.011591
1761.1671,0.011719
1763.0308,0.011396
1764.8945,0.011199
1766.7581,0.011668
1768.6218,0.011794
1770.4855,0.011597
1772.3491,0.011657
1774.2128,0.010837
1776.0765,0.010743
1777.9401,0.011250
1779.8038,0.011525
1781.6675,0.011697
1783.5312,0.011436
1785.3948,0.011605
1787.2585,0.011453
1789.1222,0.011800
1790.9858,0.012157
1792.8495,0.012060
1794.7132,0.011469
1796.5768,0.011681
1798.4405,0.011986
1800.3042,0.012209
1802.1678,0.012034
1804.0315,0.011995
1805.8952,0.012154
1807.7589,0.012338
1809.6225,0.012242
1811.4862,0.012435
1813.3499,0.012424
1815.2135,0.012343
1817.0772,0.012293
1818.9409,0.012126
1820.8045,0.012083
1822.6682,0.012200
1824.5319,0.012169
1826.3955,0.012163
1828.2592,0.012161
1830.1229,0.012475
1831.9865,0.011858
1833.8502,0.011896
1835.7139,0.011992
1837.5776,0.012033
1839.4412,0.011985
1841.3049,0.011960
1843.1686,0.012031
1845.0322,0.011779
1846.8959,0.011428
1848.7596,0.011632
1850.6232,0.011808
1852.4869,0.012269
1854.3506,0.012338
1856.2142,0.012201
1858.0779,0.012252
1859.9416,0.012452
1861.8052,0.012384
1863.6689,0.012258
1865.5326,0.012244
1867.3963,0.012407
1869.2599,0.012317
1871.1236,0.011652
1872.9873,0.011823
1874.8509,0.012077
1876.7146,0.011930
1878.5783,0.012009
1880.4419,0.012159
1882.3056,0.012063
1884.1693,0.011981
1886.0329,0.012155
1887.8966,0.012384
1889.7603,0.012161
1891.6240,0.011451
1893.4876,0.011554
1895.3513,0.011692
1897.2150,0.011487
1899.0786,0.011721
1900.9423,0.012111
1902.8060,0.012240
1904.6696,0.012400
1906.5333,0.012367
1908.3970,0.012139
1910.2606,0.011922
1912.1243,0.011979
1913.9880,0.011641
1915.8516,0.011363
1917.7153,0.011685
1919.5790,0.011725
1921.4427,0.011549
1923.3063,0.011520
1925.1700,0.011306
1927.0337,0.011604
1928.8973,0.011936
1930.7610,0.011831
1932.6247,0.011822
1934.4883,0.012104
1936.3520,0.011563
1938.2157,0.011250
1940.0793,0.011067
1941.9430,0.010793
1943.8067,0.010692
1945.6704,0.010866
1947.5340,0.010360
1949.3977,0.009718
1951.2614,0.009261
1953.1250,0.009016
1954.9887,0.009167
1956.8524,0.009674
1958.7160,0.009501
1960.5797,0.008901
1962.4434,0.007975
1964.3070,0.007054
1966.1707,0.007085
1968.0344,0.006839
1969.8980,0.005870
1971.7617,0.005295
1973.6254,0.005259
1975.4891,0.005750
1977.3527,0.005614
1979.2164,0.005400
1981.0801,0.005984
1982.9437,0.006377
1984.8074,0.006810
1986.6711,0.007811
1988.5347,0.008445
1990.3984,0.008007
1992.2621,0.007947
1994.1257,0.008074
1995.9894,0.007975
1997.8531,0.008420
1999.7167,0.008225
2001.5804,0.007840
2003.4441,0.007942
2005.3078,0.007021
2007.1714,0.005851
2009.0351,0.005431
2010.8988,0.005586
2012.7624,0.006372
2014.6261,0.006444
2016.4898,0.006061
2018.3534,0.005604
2020.2171,0.005721
2022.0808,0.006604
2023.9444,0.005949
2025.8081,0.005609
2027.6718,0.006036
2029.5355,0.004514
2031.3991,0.003792
2033.2628,0.004538
2035.1265,0.005157
2036.9901,0.006002
2038.8538,0.007367
2040.7175,0.007443
2042.5811,0.006872
2044.4448,0.007889
2046.3085,0.008879
2048.1721,0.009268
2050.0358,0.010540
2051.8995,0.011006
2053.7631,0.010504
2055.6268,0.010819
2057.4905,0.011972
2059.3542,0.012651
2061.2178,0.012305
2063.0815,0.011939
2064.9452,0.012272
2066.8088,0.012859
2068.6725,0.013178
2070.5362,0.013292
2072.3998,0.012993
2074.2635,0.013014
2076.1272,0.012981
2077.9908,0.013248
2079.8545,0.014187
2081.7182,0.014931
2083.5819,0.014796
2085.4455,0.014414
2087.3092,0.014617
2089.1729,0.015183
2091.0365,0.015317
2092.9002,0.015087
2094.7639,0.014583
2096.6275,0.014438
2098.4912,0.014691
2100.3549,0.014541
2102.2185,0.014705
2104.0822,0.015653
2105.9459,0.016422
2107.8095,0.016420
2109.6732,0.015924
2111.5369,0.015621
2113.4006,0.015623
2115.2642,0.015496
2117.1279,0.015157
2118.9916,0.015380
2120.8552,0.015476
2122.7189,0.015301
2124.5826,0.015311
2126.4462,0.015346
2128.3099,0.015019
2130.1736,0.014454
2132.0372,0.014469
2133.9009,0.014330
2135.7646,0.013560
2137.6282,0.013420
2139.4919,0.012997
2141.3556,0.012371
2143.2193,0.012839
2145.0829,0.013459
2146.9466,0.012292
2148.8103,0.010699
2150.6739,0.010231
2152.5376,0.010910
2154.4013,0.010305
2156.2649,0.008453
2158.1286,0.007518
2159.9923,0.007016
2161.8559,0.006403
2163.7196,0.007657
2165.5833,0.009440
2167.4470,0.010567
2169.3106,0.010738
2171.1743,0.010725
2173.0380,0.010909
2174.9016,0.010350
2176.7653,0.009568
2178.6290,0.009673
2180.4926,0.010560
2182.3563,0.011693
2184.2200,0.011943
2186.0836,0.011683
2187.9473,0.011677
2189.8110,0.012080
2191.6746,0.012066
2193.5383,0.012069
2195.4020,0.012491
2197.2657,0.013466
2199.1293,0.013880
2200.9930,0.014345
2202.8567,0.014343
2204.7203,0.013690
2206.5840,0.013315
2208.4477,0.013468
2210.3113,0.013535
2212.1750,0.013959
2214.0387,0.014503
2215.9023,0.015474
2217.7660,0.016233
2219.6297,0.016144
2221.4934,0.016237
2223.3570,0.016194
2225.2207,0.015679
2227.0844,0.016133
2228.9480,0.016428
2230.8117,0.016479
2232.6754,0.016223
2234.5390,0.015654
2236.4027,0.015788
2238.2664,0.017181
2240.1300,0.018138
2241.9937,0.017984
2243.8574,0.017566
2245.7210,0.017553
2247.5847,0.017467
2249.4484,0.017812
2251.3121,0.017912
2253.1757,0.017725
2255.0394,0.017462
2256.9031,0.017431
2258.7667,0.018164
2260.6304,0.018910
2262.4941,0.018620
2264.3577,0.018519
2266.2214,0.019417
2268.0851,0.020493
2269.9487,0.020287
2271.8124,0.020008
2273.6761,0.020324
2275.5397,0.020645
2277.4034,0.020657
2279.2671,0.020881
2281.1308,0.021059
2282.9944,0.021203
2284.8581,0.021611
2286.7218,0.022192
2288.5854,0.022386
2290.4491,0.022267
2292.3128,0.021929
2294.1764,0.021919
2296.0401,0.022021
2297.9038,0.021959
2299.7674,0.022158
2301.6311,0.022559
2303.4948,0.022716
2305.3585,0.023130
2307.2221,0.023307
2309.0858,0.023090
2310.9495,0.023090
2312.8131,0.023144
2314.6768,0.022927
2316.5405,0.022741
2318.4041,0.022701
2320.2678,0.022725
2322.1315,0.022668
2323.9951,0.022806
2325.8588,0.022727
2327.7225,0.022570
2329.5861,0.022349
2331.4498,0.022231
2333.3135,0.022103
2335.1772,0.022211
2337.0408,0.022234
2338.9045,0.022308
2340.7682,0.022464
2342.6318,0.022612
2344.4955,0.022389
2346.3592,0.022048
2348.2228,0.021816
2350.0865,0.021969
2351.9502,0.022183
2353.8138,0.022129
2355.6775,0.022038
2357.5412,0.022110
2359.4049,0.022152
2361.2685,0.022115
2363.1322,0.021764
2364.9959,0.021742
2366.8595,0.021853
2368.7232,0.021912
2370.5869,0.022402
2372.4505,0.022794
2374.3142,0.022825
2376.1779,0.022924
2378.0415,0.022942
2379.9052,0.023045
2381.7689,0.023182
2383.6325,0.022959
2385.4962,0.022738
2387.3599,0.023129
2389.2236,0.023177
2391.0872,0.023036
2392.9509,0.023041
2394.8146,0.022963
2396.6782,0.022980
2398.5419,0.023194
2400.4056,0.023223
2402.2692,0.023197
2404.1329,0.023241
2405.9966,0.023377
2407.8602,0.023400
2409.7239,0.023398
2411.5876,0.023293
2413.4512,0.023317
2415.3149,0.023492
2417.1786,0.023595
2419.0423,0.023546
2420.9059,0.023736
2422.7696,0.023996
2424.6333,0.024014
2426.4969,0.023743
2428.3606,0.023620
2430.2243,0.023842
2432.0879,0.024187
2433.9516,0.024008
2435.8153,0.023873
2437.6789,0.023846
2439.5426,0.023884
2441.4063,0.023987
2443.2700,0.024177
2445.1336,0.024193
2446.9973,0.024097
2448.8610,0.023972
2450.7246,0.023987
2452.5883,0.023951
2454.4520,0.023990
2456.3156,0.023977
2458.1793,0.024116
2460.0430,0.024032
2461.9066,0.023862
2463.7703,0.023792
2465.6340,0.023772
2467.4976,0.023752
2469.3613,0.023851
2471.2250,0.024018
2473.0887,0.024064
2474.9523,0.023926
2476.8160,0.023946
2478.6797,0.024071
2480.5433,0.024340
2482.4070,0.024438
2484.2707,0.024258
2486.1343,0.024001
2487.9980,0.024192
2489.8617,0.024404
2491.7253,0.024751
2493.5890,0.025004
2495.4527,0.024889
2497.3164,0.024520
2499.1800,0.024645
2501.0437,0.024857
2502.9074,0.025033
2504.7710,0.024768
2506.6347,0.024770
2508.4984,0.025285
2510.3620,0.025593
2512.2257,0.025375
2514.0894,0.025335
2515.9530,0.025612
2517.8167,0.025786
2519.6804,0.025753
2521.5440,0.026073
2523.4077,0.026300
2525.2714,0.025883
2527.1351,0.025761
