Wavenumber,Intensity
650.4205,0.217383
652.2841,0.211732
654.1478,0.208278
656.0115,0.204712
657.8751,0.201520
659.7388,0.202496
661.6025,0.203757
663.4661,0.202184
665.3298,0.202343
667.1935,0.202970
669.0571,0.203444
670.9208,0.199050
672.7845,0.195427
674.6481,0.194035
676.5118,0.193475
678.3755,0.193223
680.2392,0.193223
682.1028,0.191178
683.9665,0.190624
685.8302,0.191730
687.6938,0.191730
689.5575,0.190387
691.4212,0.190354
693.2848,0.190260
695.1485,0.190802
697.0122,0.190488
698.8758,0.191202
700.7395,0.192852
702.6032,0.191859
704.4669,0.188200
706.3305,0.183875
708.1942,0.176433
710.0579,0.167712
711.9215,0.159815
713.7852,0.152067
715.6489,0.144352
717.5125,0.137746
719.3762,0.131803
721.2399,0.126329
723.1035,0.121309
724.9672,0.116183
726.8309,0.111184
728.6945,0.107492
730.5582,0.103578
732.4219,0.099828
734.2856,0.096736
736.1492,0.094170
738.0129,0.093256
739.8766,0.094611
741.7402,0.097554
743.6039,0.100983
745.4676,0.103140
747.3312,0.103353
749.1949,0.102755
751.0586,0.101971
752.9222,0.100889
754.7859,0.099585
756.6496,0.098507
758.5132,0.097986
760.3769,0.097457
762.2406,0.097009
764.1043,0.096273
765.9679,0.095906
767.8316,0.095980
769.6953,0.096013
771.5589,0.095508
773.4226,0.095382
775.2863,0.095842
777.1499,0.096606
779.0136,0.097354
780.8773,0.097825
782.7409,0.098756
784.6046,0.100356
786.4683,0.101670
788.3320,0.103159
790.1956,0.105001
792.0593,0.106887
793.9230,0.108258
795.7866,0.109410
797.6503,0.110661
799.5140,0.112133
801.3776,0.113278
803.2413,0.113943
805.1050,0.114118
806.9686,0.113420
808.8323,0.111562
810.6960,0.108776
812.5596,0.105668
814.4233,0.102498
816.2870,0.099237
818.1507,0.096312
820.0143,0.093866
821.8780,0.092053
823.7417,0.091156
825.6053,0.091211
827.4690,0.092784
829.3327,0.094106
831.1963,0.089212
833.0600,0.078154
834.9237,0.068667
836.7873,0.064206
838.6510,0.062645
840.5147,0.062250
842.3784,0.062344
844.2420,0.062313
846.1057,0.062161
847.9694,0.061571
849.8330,0.060464
851.6967,0.059392
853.5604,0.058644
855.4240,0.058146
857.2877,0.057785
859.1514,0.057250
861.0150,0.056594
862.8787,0.056409
864.7424,0.056259
866.6060,0.055876
868.4697,0.055960
870.3334,0.056167
872.1971,0.056314
874.0607,0.056626
875.9244,0.057040
877.7881,0.057396
879.6517,0.057959
881.5154,0.058536
883.3791,0.058711
885.2427,0.058849
887.1064,0.059338
888.9701,0.059845
890.8337,0.060278
892.6974,0.061014
894.5611,0.061910
896.4247,0.063048
898.2884,0.064445
900.1521,0.065985
902.0158,0.067876
903.8794,0.070324
905.7431,0.073625
907.6068,0.077843
909.4704,0.083094
911.3341,0.089842
913.1978,0.097827
915.0614,0.102506
916.9251,0.096150
918.7888,0.081331
920.6524,0.069120
922.5161,0.063446
924.3798,0.061557
926.2435,0.061111
928.1071,0.061365
929.9708,0.061901
931.8345,0.062655
933.6981,0.063517
935.5618,0.064248
937.4255,0.064942
939.2891,0.065741
941.1528,0.066565
943.0165,0.067354
944.8801,0.068368
946.7438,0.069555
948.6075,0.070620
950.4711,0.071665
952.3348,0.072825
954.1985,0.074175
956.0622,0.075625
957.9258,0.077053
959.7895,0.078457
961.6532,0.079976
963.5168,0.081815
965.3805,0.083931
967.2442,0.086541
969.1078,0.089484
970.9715,0.092387
972.8352,0.095755
974.6988,0.100878
976.5625,0.109844
978.4262,0.125450
980.2899,0.147681
982.1535,0.157964
984.0172,0.134819
985.8809,0.101540
987.7445,0.085271
989.6082,0.081993
991.4719,0.082179
993.3355,0.083298
995.1992,0.084422
997.0629,0.085062
998.9265,0.085666
1000.7902,0.086533
1002.6539,0.087676
1004.5175,0.089078
1006.3812,0.090581
1008.2449,0.091977
1010.1086,0.093173
1011.9722,0.094192
1013.8359,0.094878
1015.6996,0.095211
1017.5632,0.095251
1019.4269,0.095104
1021.2906,0.094917
1023.1542,0.094688
1025.0179,0.094495
1026.8816,0.094493
1028.7452,0.094731
1030.6089,0.095194
1032.4726,0.096069
1034.3362,0.097427
1036.1999,0.098943
1038.0636,0.100706
1039.9273,0.103033
1041.7909,0.105930
1043.6546,0.109443
1045.5183,0.113314
1047.3819,0.116359
1049.2456,0.116425
1051.1093,0.111425
1052.9729,0.102366
1054.8366,0.093386
1056.7003,0.087374
1058.5639,0.084488
1060.4276,0.083626
1062.2913,0.083740
1064.1550,0.084308
1066.0186,0.085193
1067.8823,0.086433
1069.7460,0.087971
1071.6096,0.089524
1073.4733,0.091107
1075.3370,0.092876
1077.2006,0.094903
1079.0643,0.097103
1080.9280,0.099438
1082.7916,0.102130
1084.6553,0.104991
1086.5190,0.108013
1088.3826,0.111492
1090.2463,0.115380
1092.1100,0.119736
1093.9737,0.124896
1095.8373,0.130641
1097.7010,0.136726
1099.5647,0.143345
1101.4283,0.150204
1103.2920,0.156569
1105.1557,0.161528
1107.0193,0.163205
1108.8830,0.159904
1110.7467,0.151699
1112.6103,0.140185
1114.4740,0.127666
1116.3377,0.116102
1118.2014,0.106578
1120.0650,0.099363
1121.9287,0.094300
1123.7924,0.090954
1125.6560,0.088529
1127.5197,0.086348
1129.3834,0.084119
1131.2470,0.081729
1133.1107,0.079287
1134.9744,0.077150
1136.8380,0.075394
1138.7017,0.074047
1140.5654,0.073219
1142.4290,0.072727
1144.2927,0.072327
1146.1564,0.071957
1148.0201,0.071786
1149.8837,0.071728
1151.7474,0.071842
1153.6111,0.072401
1155.4747,0.073193
1157.3384,0.074244
1159.2021,0.075690
1161.0657,0.077380
1162.9294,0.079456
1164.7931,0.081999
1166.6567,0.085062
1168.5204,0.088838
1170.3841,0.093093
1172.2477,0.096592
1174.1114,0.097258
1175.9751,0.093942
1177.8388,0.088414
1179.7024,0.083552
1181.5661,0.080491
1183.4298,0.078802
1185.2934,0.077833
1187.1571,0.077160
1189.0208,0.076485
1190.8844,0.075792
1192.7481,0.075286
1194.6118,0.075095
1196.4754,0.074983
1198.3391,0.074923
1200.2028,0.075107
1202.0665,0.075279
1203.9301,0.075275
1205.7938,0.075236
1207.6575,0.075275
1209.5211,0.075502
1211.3848,0.075869
1213.2485,0.076212
1215.1121,0.076655
1216.9758,0.077229
1218.8395,0.077621
1220.7031,0.077758
1222.5668,0.077769
1224.4305,0.077836
1226.2941,0.078059
1228.1578,0.078280
1230.0215,0.078584
1231.8852,0.079041
1233.7488,0.079481
1235.6125,0.079889
1237.4762,0.080363
1239.3398,0.080922
1241.2035,0.081458
1243.0672,0.082032
1244.9308,0.082679
1246.7945,0.083288
1248.6582,0.083870
1250.5218,0.084443
1252.3855,0.085108
1254.2492,0.085831
1256.1129,0.086389
1257.9765,0.086960
1259.8402,0.087879
1261.7039,0.089098
1263.5675,0.090517
1265.4312,0.091961
1267.2949,0.092772
1269.1585,0.092797
1271.0222,0.092619
1272.8859,0.092673
1274.7495,0.093152
1276.6132,0.094106
1278.4769,0.095461
1280.3405,0.097110
1282.2042,0.098885
1284.0679,0.100691
1285.9316,0.102666
1287.7952,0.104989
1289.6589,0.107622
1291.5226,0.110618
1293.3862,0.114339
1295.2499,0.119050
1297.1136,0.124606
1298.9772,0.130995
1300.8409,0.138820
1302.7046,0.147683
1304.5682,0.155046
1306.4319,0.156456
1308.2956,0.147231
1310.1592,0.127898
1312.0229,0.106737
1313.8866,0.091885
1315.7503,0.085585
1317.6139,0.084940
1319.4776,0.086987
1321.3413,0.089856
1323.2049,0.092940
1325.0686,0.096480
1326.9323,0.100260
1328.7959,0.103597
1330.6596,0.105777
1332.5233,0.106445
1334.3869,0.105833
1336.2506,0.104965
1338.1143,0.105224
1339.9780,0.106641
1341.8416,0.107031
1343.7053,0.106668
1345.5690,0.107174
1347.4326,0.108386
1349.2963,0.110081
1351.1600,0.112127
1353.0236,0.114474
1354.8873,0.117318
1356.7510,0.119927
1358.6146,0.121783
1360.4783,0.124168
1362.3420,0.128586
1364.2056,0.132500
1366.0693,0.134346
1367.9330,0.137679
1369.7967,0.141873
1371.6603,0.145330
1373.5240,0.150537
1375.3877,0.156358
1377.2513,0.159477
1379.1150,0.163197
1380.9787,0.168323
1382.8423,0.173787
1384.7060,0.180095
1386.5697,0.188689
1388.4333,0.198060
1390.2970,0.202895
1392.1607,0.205745
1394.0244,0.207497
1395.8880,0.203673
1397.7517,0.195789
1399.6154,0.186652
1401.4790,0.177298
1403.3427,0.169431
1405.2064,0.157748
1407.0700,0.140643
1408.9337,0.123331
1410.7974,0.107188
1412.6610,0.095046
1414.5247,0.088737
1416.3884,0.087567
1418.2520,0.092191
1420.1157,0.101362
1421.9794,0.105351
1423.8431,0.103148
1425.7067,0.093891
1427.5704,0.083335
1429.4341,0.076673
1431.2977,0.073716
1433.1614,0.072936
1435.0251,0.074120
1436.8887,0.078444
1438.7524,0.081316
1440.6161,0.081885
1442.4797,0.083518
1444.3434,0.085215
1446.2071,0.086677
1448.0707,0.087711
1449.9344,0.086096
1451.7981,0.082648
1453.6618,0.079275
1455.5254,0.078652
1457.3891,0.083620
1459.2528,0.085796
1461.1164,0.084311
1462.9801,0.084510
1464.8438,0.085822
1466.7074,0.084853
1468.5711,0.082150
1470.4348,0.080912
1472.2984,0.082527
1474.1621,0.084332
1476.0258,0.083121
1477.8895,0.081591
1479.7531,0.080690
1481.6168,0.081144
1483.4805,0.081447
1485.3441,0.081473
1487.2078,0.082805
1489.0715,0.086098
1490.9351,0.088703
1492.7988,0.087901
1494.6625,0.087447
1496.5261,0.090077
1498.3898,0.092858
1500.2535,0.092940
1502.1171,0.091725
1503.9808,0.091075
1505.8445,0.094446
1507.7082,0.104450
1509.5718,0.104288
1511.4355,0.103345
1513.2992,0.103905
1515.1628,0.105011
1517.0265,0.107201
1518.8902,0.108262
1520.7538,0.109868
1522.6175,0.113018
1524.4812,0.112572
1526.3448,0.113484
1528.2085,0.114214
1530.0722,0.113705
1531.9359,0.114816
1533.7995,0.118283
1535.6632,0.118249
1537.5269,0.117057
1539.3905,0.121430
1541.2542,0.131195
1543.1179,0.132862
1544.9815,0.134344
1546.8452,0.135415
1548.7089,0.136967
1550.5725,0.140330
1552.4362,0.142517
1554.2999,0.144000
1556.1635,0.146307
1558.0272,0.152343
1559.8909,0.166245
1561.7546,0.162279
1563.6182,0.160358
1565.4819,0.162180
1567.3456,0.164635
1569.2092,0.168648
1571.0729,0.172521
1572.9366,0.172811
1574.8002,0.175885
1576.6639,0.182756
1578.5276,0.184880
1580.3912,0.185058
1582.2549,0.187311
1584.1186,0.189491
1585.9822,0.191230
1587.8459,0.192470
1589.7096,0.193327
1591.5733,0.193318
1593.4369,0.192762
1595.3006,0.191758
1597.1643,0.190334
1599.0279,0.188398
1600.8916,0.186305
1602.7553,0.184338
1604.6189,0.182422
1606.4826,0.181023
1608.3463,0.179963
1610.2099,0.178020
1612.0736,0.174962
1613.9373,0.171700
1615.8010,0.168801
1617.6646,0.162013
1619.5283,0.153106
1621.3920,0.147695
1623.2556,0.141456
1625.1193,0.132795
1626.9830,0.124915
1628.8466,0.115662
1630.7103,0.105747
1632.5740,0.097843
1634.4376,0.090614
1636.3013,0.082102
1638.1650,0.075219
1640.0286,0.072354
1641.8923,0.070064
1643.7560,0.069368
1645.6197,0.070795
1647.4833,0.073999
1649.3470,0.075268
1651.2107,0.077084
1653.0743,0.083415
1654.9380,0.088906
1656.8017,0.087914
1658.6653,0.088888
1660.5290,0.090298
1662.3927,0.091316
1664.2563,0.090473
1666.1200,0.088989
1667.9837,0.088314
1669.8474,0.088007
1671.7110,0.086759
1673.5747,0.086657
1675.4384,0.088452
1677.3020,0.090320
1679.1657,0.091671
1681.0294,0.094687
1682.8930,0.098696
1684.7567,0.104146
1686.6204,0.104363
1688.4840,0.102986
1690.3477,0.100960
1692.2114,0.097626
1694.0750,0.094482
1695.9387,0.091010
1697.8024,0.085750
1699.6661,0.082450
1701.5297,0.074610
1703.3934,0.067493
1705.2571,0.060575
1707.1207,0.051010
1708.9844,0.043965
1710.8481,0.038967
1712.7117,0.034917
1714.5754,0.032429
1716.4391,0.030576
1718.3027,0.029521
1720.1664,0.027996
1722.0301,0.026858
1723.8937,0.025000
1725.7574,0.022485
1727.6211,0.020059
1729.4848,0.018120
1731.3484,0.016398
1733.2121,0.015393
1735.0758,0.013958
1736.9394,0.013211
1738.8031,0.012924
1740.6668,0.012560
1742.5304,0.012139
1744.3941,0.011888
1746.2578,0.011402
1748.1214,0.011202
1749.9851,0.010879
1751.8488,0.010668
1753.7125,0.010302
1755.5761,0.010271
1757.4398,0.010274
1759.3035,0.010270
1761.1671,0.010065
1763.0308,0.010125
1764.8945,0.010001
1766.7581,0.010041
1768.6218,0.010029
1770.4855,0.009771
1772.3491,0.009356
1774.2128,0.009379
1776.0765,0.009456
1777.9401,0.009781
1779.8038,0.009897
1781.6675,0.009869
1783.5312,0.009733
1785.3948,0.009992
1787.2585,0.010035
1789.1222,0.010049
1790.9858,0.009902
1792.8495,0.010078
1794.7132,0.010092
1796.5768,0.009994
1798.4405,0.009970
1800.3042,0.010177
1802.1678,0.010024
1804.0315,0.010005
1805.8952,0.010076
1807.7589,0.010420
1809.6225,0.010633
1811.4862,0.010598
1813.3499,0.010276
1815.2135,0.010183
1817.0772,0.010082
1818.9409,0.010277
1820.8045,0.010291
1822.6682,0.010189
1824.5319,0.010143
1826.3955,0.010324
1828.2592,0.010285
1830.1229,0.010291
1831.9865,0.009811
1833.8502,0.009542
1835.7139,0.009385
1837.5776,0.009757
1839.4412,0.009963
1841.3049,0.010122
1843.1686,0.010068
1845.0322,0.009945
1846.8959,0.009648
1848.7596,0.009968
1850.6232,0.009847
1852.4869,0.009808
1854.3506,0.009857
1856.2142,0.009927
1858.0779,0.010135
1859.9416,0.010448
1861.8052,0.010247
1863.6689,0.010111
1865.5326,0.009933
1867.3963,0.010058
1869.2599,0.010195
1871.1236,0.010081
1872.9873,0.009858
1874.8509,0.010048
1876.7146,0.009949
1878.5783,0.009943
1880.4419,0.009925
1882.3056,0.010280
1884.1693,0.010484
1886.0329,0.010431
1887.8966,0.009924
1889.7603,0.009502
1891.6240,0.009229
1893.4876,0.009947
1895.3513,0.010308
1897.2150,0.010066
1899.0786,0.009631
1900.9423,0.009966
1902.8060,0.010343
1904.6696,0.010429
1906.5333,0.010177
1908.3970,0.010225
1910.2606,0.009943
1912.1243,0.009942
1913.9880,0.010216
1915.8516,0.010488
1917.7153,0.010087
1919.5790,0.010004
1921.4427,0.009813
1923.3063,0.009941
1925.1700,0.010164
1927.0337,0.009876
1928.8973,0.009467
1930.7610,0.009896
1932.6247,0.010250
1934.4883,0.010296
1936.3520,0.009934
1938.2157,0.009918
1940.0793,0.009266
1941.9430,0.009177
1943.8067,0.009007
1945.6704,0.009484
1947.5340,0.008876
1949.3977,0.008552
1951.2614,0.008285
1953.1250,0.008514
1954.9887,0.008428
1956.8524,0.008039
1958.7160,0.007038
1960.5797,0.007587
1962.4434,0.007351
1964.3070,0.005974
1966.1707,0.003690
1968.0344,0.003590
1969.8980,0.002990
1971.7617,0.002883
1973.6254,0.003103
1975.4891,0.003632
1977.3527,0.003386
1979.2164,0.005607
1981.0801,0.007305
1982.9437,0.007669
1984.8074,0.006840
1986.6711,0.007236
1988.5347,0.007285
1990.3984,0.007186
1992.2621,0.007025
1994.1257,0.007077
1995.9894,0.006347
1997.8531,0.006779
1999.7167,0.007648
2001.5804,0.008989
2003.4441,0.008564
2005.3078,0.007285
2007.1714,0.005750
2009.0351,0.005364
2010.8988,0.004861
2012.7624,0.004360
2014.6261,0.004343
2016.4898,0.005462
2018.3534,0.005166
2020.2171,0.005708
2022.0808,0.005307
2023.9444,0.005045
2025.8081,0.005241
2027.6718,0.006337
2029.5355,0.005396
2031.3991,0.004700
2033.2628,0.004980
2035.1265,0.006405
2036.9901,0.007335
2038.8538,0.007110
2040.7175,0.005968
2042.5811,0.006760
2044.4448,0.007704
2046.3085,0.008391
2048.1721,0.008450
2050.0358,0.009374
2051.8995,0.010137
2053.7631,0.010949
2055.6268,0.011339
2057.4905,0.011607
2059.3542,0.011017
2061.2178,0.011525
2063.0815,0.012021
2064.9452,0.012124
2066.8088,0.011974
2068.6725,0.011748
2070.5362,0.011467
2072.3998,0.012797
2074.2635,0.013531
2076.1272,0.013330
2077.9908,0.012964
2079.8545,0.012777
2081.7182,0.013036
2083.5819,0.013625
2085.4455,0.013115
2087.3092,0.013136
2089.1729,0.013872
2091.0365,0.014054
2092.9002,0.013912
2094.7639,0.014096
2096.6275,0.013577
2098.4912,0.013437
2100.3549,0.013630
2102.2185,0.014018
2104.0822,0.014080
2105.9459,0.014172
2107.8095,0.014178
2109.6732,0.014377
2111.5369,0.014599
2113.4006,0.014972
2115.2642,0.014759
2117.1279,0.014284
2118.9916,0.014255
2120.8552,0.014347
2122.7189,0.014453
2124.5826,0.014602
2126.4462,0.014354
2128.3099,0.014359
2130.1736,0.014049
2132.0372,0.013294
2133.9009,0.011839
2135.7646,0.011595
2137.6282,0.012495
2139.4919,0.012537
2141.3556,0.011995
2143.2193,0.011090
2145.0829,0.010655
2146.9466,0.010530
2148.8103,0.009437
2150.6739,0.009775
2152.5376,0.008882
2154.4013,0.007642
2156.2649,0.007190
2158.1286,0.007203
2159.9923,0.006764
2161.8559,0.007464
2163.7196,0.006433
2165.5833,0.005947
2167.4470,0.006637
2169.3106,0.008900
2171.1743,0.010390
2173.0380,0.011700
2174.9016,0.010908
2176.7653,0.010957
2178.6290,0.009444
2180.4926,0.009110
2182.3563,0.009538
2184.2200,0.010397
2186.0836,0.010398
2187.9473,0.011517
2189.8110,0.012298
2191.6746,0.012484
2193.5383,0.012362
2195.4020,0.012108
2197.2657,0.012235
2199.1293,0.013223
2200.9930,0.013016
2202.8567,0.012911
2204.7203,0.013067
2206.5840,0.013722
2208.4477,0.014704
2210.3113,0.014823
2212.1750,0.014070
2214.0387,0.014311
2215.9023,0.014346
2217.7660,0.014788
2219.6297,0.015318
2221.4934,0.014819
2223.3570,0.014586
2225.2207,0.015614
2227.0844,0.015952
2228.9480,0.015859
2230.8117,0.015600
2232.6754,0.016250
2234.5390,0.016851
2236.4027,0.017068
2238.2664,0.016590
2240.1300,0.017174
2241.9937,0.017513
2243.8574,0.017447
2245.7210,0.016805
2247.5847,0.016735
2249.4484,0.017640
2251.3121,0.018458
2253.1757,0.017841
2255.0394,0.017681
2256.9031,0.017966
2258.7667,0.018254
2260.6304,0.018526
2262.4941,0.018890
2264.3577,0.018948
2266.2214,0.018839
2268.0851,0.018804
2269.9487,0.019959
2271.8124,0.020806
2273.6761,0.020581
2275.5397,0.020571
2277.4034,0.021187
2279.2671,0.021156
2281.1308,0.021041
2282.9944,0.021686
2284.8581,0.022427
2286.7218,0.022454
2288.5854,0.022480
2290.4491,0.022548
2292.3128,0.022631
2294.1764,0.022282
2296.0401,0.022009
2297.9038,0.021991
2299.7674,0.022480
2301.6311,0.022661
2303.4948,0.022577
2305.3585,0.022568
2307.2221,0.022542
2309.0858,0.022817
2310.9495,0.023150
2312.8131,0.022989
2314.6768,0.022645
2316.5405,0.022668
2318.4041,0.022797
2320.2678,0.023107
2322.1315,0.023314
2323.9951,0.023168
2325.8588,0.022848
2327.7225,0.022393
2329.5861,0.022234
2331.4498,0.021897
2333.3135,0.021570
2335.1772,0.021631
2337.0408,0.021732
2338.9045,0.021632
2340.7682,0.021824
2342.6318,0.021937
2344.4955,0.022162
2346.3592,0.022437
2348.2228,0.022022
2350.0865,0.021399
2351.9502,0.021323
2353.8138,0.021153
2355.6775,0.021201
2357.5412,0.021144
2359.4049,0.020957
2361.2685,0.021087
2363.1322,0.021195
2364.9959,0.021474
2366.8595,0.021658
2368.7232,0.021888
2370.5869,0.022250
2372.4505,0.022678
2374.3142,0.022701
2376.1779,0.022594
2378.0415,0.022964
2379.9052,0.023093
2381.7689,0.022809
2383.6325,0.022654
2385.4962,0.022697
2387.3599,0.022918
2389.2236,0.022907
2391.0872,0.022705
2392.9509,0.022797
2394.8146,0.022908
2396.6782,0.022894
2398.5419,0.022652
2400.4056,0.022888
2402.2692,0.023261
2404.1329,0.023441
2405.9966,0.023789
2407.8602,0.024153
2409.7239,0.024111
2411.5876,0.023745
2413.4512,0.023689
2415.3149,0.023852
2417.1786,0.023829
2419.0423,0.023940
2420.9059,0.023909
2422.7696,0.024072
2424.6333,0.024438
2426.4969,0.024502
2428.3606,0.024334
2430.2243,0.024308
2432.0879,0.024149
2433.9516,0.024292
2435.8153,0.024582
2437.6789,0.025162
2439.5426,0.025207
2441.4063,0.024895
2443.2700,0.024390
2445.1336,0.024164
2446.9973,0.024352
2448.8610,0.024555
2450.7246,0.024849
2452.5883,0.024989
2454.4520,0.024824
2456.3156,0.024874
2458.1793,0.024949
2460.0430,0.024720
2461.9066,0.024452
2463.7703,0.024416
2465.6340,0.024413
2467.4976,0.024287
2469.3613,0.024450
2471.2250,0.024783
2473.0887,0.024851
2474.9523,0.024780
2476.8160,0.025008
2478.6797,0.024968
2480.5433,0.024599
2482.4070,0.024414
2484.2707,0.024619
2486.1343,0.025168
2487.9980,0.025478
2489.8617,0.025592
2491.7253,0.025412
2493.5890,0.025739
2495.4527,0.025949
2497.3164,0.026210
2499.1800,0.026379
2501.0437,0.025997
2502.9074,0.026229
2504.7710,0.026535
2506.6347,0.026638
2508.4984,0.026825
2510.3620,0.026898
2512.2257,0.026818
2514.0894,0.026593
2515.9530,0.026749
2517.8167,0.027377
2519.6804,0.027459
2521.5440,0.027206
2523.4077,0.027312
2525.2714,0.027589
2527.1351,0.027988
