Wavenumber,Intensity
650.4205,0.240499
652.2841,0.234607
654.1478,0.233630
656.0115,0.231983
657.8751,0.231405
659.7388,0.228638
661.6025,0.227436
663.4661,0.228946
665.3298,0.230206
667.1935,0.231624
669.0571,0.231703
670.9208,0.226276
672.7845,0.222861
674.6481,0.219479
676.5118,0.218321
678.3755,0.218246
680.2392,0.218258
682.1028,0.217681
683.9665,0.216286
685.8302,0.214707
687.6938,0.216021
689.5575,0.217358
691.4212,0.217572
693.2848,0.216655
695.1485,0.216662
697.0122,0.217247
698.8758,0.218788
700.7395,0.219412
702.6032,0.218760
704.4669,0.215611
706.3305,0.209304
708.1942,0.200389
710.0579,0.190164
711.9215,0.179763
713.7852,0.171216
715.6489,0.162750
717.5125,0.154521
719.3762,0.148119
721.2399,0.142803
723.1035,0.136784
724.9672,0.131349
726.8309,0.126238
728.6945,0.120752
730.5582,0.115448
732.4219,0.110481
734.2856,0.106035
736.1492,0.103265
738.0129,0.101779
739.8766,0.101823
741.7402,0.104328
743.6039,0.108006
745.4676,0.110275
747.3312,0.111007
749.1949,0.109730
751.0586,0.108114
752.9222,0.107267
754.7859,0.106937
756.6496,0.106772
758.5132,0.105774
760.3769,0.103811
762.2406,0.102391
764.1043,0.101662
765.9679,0.100901
767.8316,0.100277
769.6953,0.100553
771.5589,0.101042
773.4226,0.101202
775.2863,0.101542
777.1499,0.102611
779.0136,0.103854
780.8773,0.105277
782.7409,0.106706
784.6046,0.108168
786.4683,0.110504
788.3320,0.113569
790.1956,0.116235
792.0593,0.118390
793.9230,0.120427
795.7866,0.122217
797.6503,0.123739
799.5140,0.124973
801.3776,0.125890
803.2413,0.126311
805.1050,0.125972
806.9686,0.124899
808.8323,0.123092
810.6960,0.120400
812.5596,0.116765
814.4233,0.112909
816.2870,0.109487
818.1507,0.106384
820.0143,0.103399
821.8780,0.101012
823.7417,0.099940
825.6053,0.100452
827.4690,0.102691
829.3327,0.104422
831.1963,0.099010
833.0600,0.086214
834.9237,0.074915
836.7873,0.069516
838.6510,0.067550
840.5147,0.066730
842.3784,0.066875
844.2420,0.067659
846.1057,0.068601
847.9694,0.068780
849.8330,0.067266
851.6967,0.065284
853.5604,0.064522
855.4240,0.064467
857.2877,0.063965
859.1514,0.062790
861.0150,0.061671
862.8787,0.061010
864.7424,0.060773
866.6060,0.060841
868.4697,0.060947
870.3334,0.061163
872.1971,0.061506
874.0607,0.061651
875.9244,0.062046
877.7881,0.062773
879.6517,0.063375
881.5154,0.063629
883.3791,0.064172
885.2427,0.064808
887.1064,0.065334
888.9701,0.066222
890.8337,0.067165
892.6974,0.068205
894.5611,0.069844
896.4247,0.071669
898.2884,0.072957
900.1521,0.074012
902.0158,0.075851
903.8794,0.078797
905.7431,0.082987
907.6068,0.088383
909.4704,0.094306
911.3341,0.101320
913.1978,0.110175
915.0614,0.115488
916.9251,0.107946
918.7888,0.090938
920.6524,0.076999
922.5161,0.070635
924.3798,0.068840
926.2435,0.068697
928.1071,0.069056
929.9708,0.069512
931.8345,0.070292
933.6981,0.071282
935.5618,0.072241
937.4255,0.073293
939.2891,0.074311
941.1528,0.075259
943.0165,0.076403
944.8801,0.077573
946.7438,0.078733
948.6075,0.080023
950.4711,0.081242
952.3348,0.082465
954.1985,0.083853
956.0622,0.085241
957.9258,0.086706
959.7895,0.088351
961.6532,0.090075
963.5168,0.091996
965.3805,0.094375
967.2442,0.097227
969.1078,0.100576
970.9715,0.104116
972.8352,0.108200
974.6988,0.114615
976.5625,0.125726
978.4262,0.145071
980.2899,0.172104
982.1535,0.183453
984.0172,0.154439
985.8809,0.114813
987.7445,0.096237
989.6082,0.093206
991.4719,0.094124
993.3355,0.095720
995.1992,0.097356
997.0629,0.098581
998.9265,0.099499
1000.7902,0.100604
1002.6539,0.102000
1004.5175,0.103596
1006.3812,0.105420
1008.2449,0.107280
1010.1086,0.109073
1011.9722,0.110710
1013.8359,0.111885
1015.6996,0.112591
1017.5632,0.112973
1019.4269,0.112989
1021.2906,0.112555
1023.1542,0.111685
1025.0179,0.110499
1026.8816,0.109384
1028.7452,0.108765
1030.6089,0.108686
1032.4726,0.109155
1034.3362,0.110082
1036.1999,0.111453
1038.0636,0.113510
1039.9273,0.116221
1041.7909,0.119674
1043.6546,0.124002
1045.5183,0.128581
1047.3819,0.132061
1049.2456,0.132117
1051.1093,0.126481
1052.9729,0.116329
1054.8366,0.106131
1056.7003,0.099306
1058.5639,0.096098
1060.4276,0.094875
1062.2913,0.094294
1064.1550,0.094263
1066.0186,0.094960
1067.8823,0.096188
1069.7460,0.097674
1071.6096,0.099358
1073.4733,0.101248
1075.3370,0.103308
1077.2006,0.105517
1079.0643,0.107980
1080.9280,0.110812
1082.7916,0.113858
1084.6553,0.117060
1086.5190,0.120515
1088.3826,0.124465
1090.2463,0.129267
1092.1100,0.134961
1093.9737,0.141420
1095.8373,0.148523
1097.7010,0.156222
1099.5647,0.164437
1101.4283,0.172833
1103.2920,0.180811
1105.1557,0.186986
1107.0193,0.189091
1108.8830,0.185105
1110.7467,0.174970
1112.6103,0.160851
1114.4740,0.145691
1116.3377,0.131855
1118.2014,0.120436
1120.0650,0.111726
1121.9287,0.105687
1123.7924,0.101761
1125.6560,0.098882
1127.5197,0.096186
1129.3834,0.093467
1131.2470,0.090794
1133.1107,0.088182
1134.9744,0.085555
1136.8380,0.082925
1138.7017,0.080698
1140.5654,0.079265
1142.4290,0.078452
1144.2927,0.077944
1146.1564,0.077563
1148.0201,0.077292
1149.8837,0.077215
1151.7474,0.077446
1153.6111,0.078046
1155.4747,0.078916
1157.3384,0.080032
1159.2021,0.081490
1161.0657,0.083321
1162.9294,0.085669
1164.7931,0.088861
1166.6567,0.092957
1168.5204,0.097795
1170.3841,0.102999
1172.2477,0.106913
1174.1114,0.106984
1175.9751,0.102364
1177.8388,0.095531
1179.7024,0.089755
1181.5661,0.086330
1183.4298,0.084748
1185.2934,0.083949
1187.1571,0.083296
1189.0208,0.082625
1190.8844,0.081946
1192.7481,0.081276
1194.6118,0.080651
1196.4754,0.080309
1198.3391,0.080282
1200.2028,0.080381
1202.0665,0.080562
1203.9301,0.080859
1205.7938,0.081157
1207.6575,0.081429
1209.5211,0.081883
1211.3848,0.082579
1213.2485,0.083325
1215.1121,0.083910
1216.9758,0.084259
1218.8395,0.084301
1220.7031,0.084130
1222.5668,0.084042
1224.4305,0.084262
1226.2941,0.084660
1228.1578,0.084929
1230.0215,0.085306
1231.8852,0.085888
1233.7488,0.086422
1235.6125,0.086907
1237.4762,0.087409
1239.3398,0.087993
1241.2035,0.088686
1243.0672,0.089414
1244.9308,0.090053
1246.7945,0.090703
1248.6582,0.091487
1250.5218,0.092426
1252.3855,0.093408
1254.2492,0.094347
1256.1129,0.095299
1257.9765,0.096409
1259.8402,0.098017
1261.7039,0.099908
1263.5675,0.101604
1265.4312,0.103058
1267.2949,0.103738
1269.1585,0.103326
1271.0222,0.102711
1272.8859,0.102584
1274.7495,0.102969
1276.6132,0.103887
1278.4769,0.105319
1280.3405,0.107204
1282.2042,0.109396
1284.0679,0.111806
1285.9316,0.114440
1287.7952,0.117407
1289.6589,0.120694
1291.5226,0.124423
1293.3862,0.129174
1295.2499,0.135220
1297.1136,0.142640
1298.9772,0.151800
1300.8409,0.163149
1302.7046,0.175684
1304.5682,0.185211
1306.4319,0.185528
1308.2956,0.171502
1310.1592,0.145217
1312.0229,0.118394
1313.8866,0.101047
1315.7503,0.094446
1317.6139,0.094207
1319.4776,0.096592
1321.3413,0.099296
1323.2049,0.102343
1325.0686,0.106114
1326.9323,0.109449
1328.7959,0.111643
1330.6596,0.112987
1332.5233,0.113764
1334.3869,0.114056
1336.2506,0.114480
1338.1143,0.116338
1339.9780,0.119187
1341.8416,0.119732
1343.7053,0.119171
1345.5690,0.119967
1347.4326,0.121675
1349.2963,0.124129
1351.1600,0.127160
1353.0236,0.130734
1354.8873,0.134884
1356.7510,0.137792
1358.6146,0.138440
1360.4783,0.139570
1362.3420,0.144261
1364.2056,0.148957
1366.0693,0.150896
1367.9330,0.154986
1369.7967,0.160491
1371.6603,0.164801
1373.5240,0.171728
1375.3877,0.180094
1377.2513,0.184870
1379.1150,0.190895
1380.9787,0.199243
1382.8423,0.207774
1384.7060,0.217067
1386.5697,0.230112
1388.4333,0.245001
1390.2970,0.251563
1392.1607,0.253775
1394.0244,0.254613
1395.8880,0.248842
1397.7517,0.237501
1399.6154,0.225109
1401.4790,0.213101
1403.3427,0.202378
1405.2064,0.186533
1407.0700,0.163666
1408.9337,0.140740
1410.7974,0.119813
1412.6610,0.104383
1414.5247,0.096275
1416.3884,0.094572
1418.2520,0.100423
1420.1157,0.111914
1421.9794,0.116517
1423.8431,0.113823
1425.7067,0.102894
1427.5704,0.090353
1429.4341,0.082460
1431.2977,0.079102
1433.1614,0.078396
1435.0251,0.080322
1436.8887,0.086376
1438.7524,0.089737
1440.6161,0.090076
1442.4797,0.092060
1444.3434,0.093927
1446.2071,0.095618
1448.0707,0.097324
1449.9344,0.095911
1451.7981,0.091956
1453.6618,0.087684
1455.5254,0.086460
1457.3891,0.093160
1459.2528,0.096735
1461.1164,0.094785
1462.9801,0.094937
1464.8438,0.096570
1466.7074,0.094267
1468.5711,0.089085
1470.4348,0.086476
1472.2984,0.088603
1474.1621,0.091532
1476.0258,0.090804
1477.8895,0.089862
1479.7531,0.089188
1481.6168,0.089995
1483.4805,0.090322
1485.3441,0.090109
1487.2078,0.091770
1489.0715,0.096329
1490.9351,0.100262
1492.7988,0.099085
1494.6625,0.098327
1496.5261,0.102579
1498.3898,0.107122
1500.2535,0.107399
1502.1171,0.105981
1503.9808,0.104875
1505.8445,0.109499
1507.7082,0.125186
1509.5718,0.124577
1511.4355,0.122280
1513.2992,0.122408
1515.1628,0.123264
1517.0265,0.125778
1518.8902,0.126270
1520.7538,0.127414
1522.6175,0.131301
1524.4812,0.129802
1526.3448,0.130151
1528.2085,0.130677
1530.0722,0.129104
1531.9359,0.129505
1533.7995,0.133595
1535.6632,0.133165
1537.5269,0.130838
1539.3905,0.136823
1541.2542,0.150247
1543.1179,0.151395
1544.9815,0.153189
1546.8452,0.154193
1548.7089,0.155667
1550.5725,0.160338
1552.4362,0.163161
1554.2999,0.164845
1556.1635,0.167814
1558.0272,0.177001
1559.8909,0.202584
1561.7546,0.195716
1563.6182,0.191331
1565.4819,0.194076
1567.3456,0.197489
1569.2092,0.203908
1571.0729,0.210886
1572.9366,0.209657
1574.8002,0.212606
1576.6639,0.223746
1578.5276,0.227305
1580.3912,0.225969
1582.2549,0.228404
1584.1186,0.230964
1585.9822,0.232663
1587.8459,0.233778
1589.7096,0.234543
1591.5733,0.234424
1593.4369,0.233991
1595.3006,0.232847
1597.1643,0.230372
1599.0279,0.226866
1600.8916,0.223566
1602.7553,0.220668
1604.6189,0.217896
1606.4826,0.215426
1608.3463,0.213657
1610.2099,0.211523
1612.0736,0.207801
1613.9373,0.203166
1615.8010,0.199082
1617.6646,0.192455
1619.5283,0.182446
1621.3920,0.174691
1623.2556,0.166857
1625.1193,0.157027
1626.9830,0.147232
1628.8466,0.135550
1630.7103,0.122904
1632.5740,0.112494
1634.4376,0.103349
1636.3013,0.093963
1638.1650,0.087318
1640.0286,0.084395
1641.8923,0.081966
1643.7560,0.081078
1645.6197,0.082924
1647.4833,0.088062
1649.3470,0.089604
1651.2107,0.090943
1653.0743,0.099695
1654.9380,0.108362
1656.8017,0.105645
1658.6653,0.105395
1660.5290,0.106129
1662.3927,0.107142
1664.2563,0.106314
1666.1200,0.103752
1667.9837,0.102209
1669.8474,0.102559
1671.7110,0.102798
1673.5747,0.103718
1675.4384,0.107537
1677.3020,0.111239
1679.1657,0.112242
1681.0294,0.114945
1682.8930,0.119170
1684.7567,0.127705
1686.6204,0.128576
1688.4840,0.125026
1690.3477,0.121716
1692.2114,0.116682
1694.0750,0.111296
1695.9387,0.106029
1697.8024,0.099668
1699.6661,0.095176
1701.5297,0.086195
1703.3934,0.077651
1705.2571,0.068642
1707.1207,0.057355
1708.9844,0.049186
1710.8481,0.043283
1712.7117,0.038638
1714.5754,0.035663
1716.4391,0.033012
1718.3027,0.031576
1720.1664,0.030229
1722.0301,0.029060
1723.8937,0.026874
1725.7574,0.024210
1727.6211,0.021804
1729.4848,0.019867
1731.3484,0.017972
1733.2121,0.016842
1735.0758,0.015359
1736.9394,0.014568
1738.8031,0.014255
1740.6668,0.013844
1742.5304,0.013299
1744.3941,0.013036
1746.2578,0.012370
1748.1214,0.012061
1749.9851,0.011716
1751.8488,0.011465
1753.7125,0.011263
1755.5761,0.011345
1757.4398,0.011164
1759.3035,0.010931
1761.1671,0.010805
1763.0308,0.010889
1764.8945,0.010708
1766.7581,0.010748
1768.6218,0.010576
1770.4855,0.010417
1772.3491,0.010464
1774.2128,0.010566
1776.0765,0.010306
1777.9401,0.010549
1779.8038,0.010599
1781.6675,0.010575
1783.5312,0.010495
1785.3948,0.010753
1787.2585,0.010776
1789.1222,0.010715
1790.9858,0.010750
1792.8495,0.010959
1794.7132,0.010606
1796.5768,0.010525
1798.4405,0.010634
1800.3042,0.010883
1802.1678,0.010788
1804.0315,0.010893
1805.8952,0.011052
1807.7589,0.011182
1809.6225,0.011056
1811.4862,0.011204
1813.3499,0.011119
1815.2135,0.010966
1817.0772,0.010802
1818.9409,0.011090
1820.8045,0.011017
1822.6682,0.010896
1824.5319,0.010820
1826.3955,0.010776
1828.2592,0.010359
1830.1229,0.010260
1831.9865,0.010208
1833.8502,0.010359
1835.7139,0.010324
1837.5776,0.010316
1839.4412,0.010190
1841.3049,0.010344
1843.1686,0.010249
1845.0322,0.010533
1846.8959,0.010651
1848.7596,0.010608
1850.6232,0.010511
1852.4869,0.010693
1854.3506,0.010665
1856.2142,0.010921
1858.0779,0.010840
1859.9416,0.010810
1861.8052,0.010695
1863.6689,0.010564
1865.5326,0.010322
1867.3963,0.010588
1869.2599,0.010555
1871.1236,0.010478
1872.9873,0.010466
1874.8509,0.010544
1876.7146,0.010411
1878.5783,0.010595
1880.4419,0.010676
1882.3056,0.010748
1884.1693,0.010543
1886.0329,0.010656
1887.8966,0.010597
1889.7603,0.010544
1891.6240,0.010576
1893.4876,0.011174
1895.3513,0.011023
1897.2150,0.010597
1899.0786,0.010366
1900.9423,0.010417
1902.8060,0.010307
1904.6696,0.010567
1906.5333,0.010869
1908.3970,0.011178
1910.2606,0.010635
1912.1243,0.010344
1913.9880,0.010196
1915.8516,0.010154
1917.7153,0.010044
1919.5790,0.010126
1921.4427,0.010072
1923.3063,0.010389
1925.1700,0.010411
1927.0337,0.010406
1928.8973,0.009983
1930.7610,0.009535
1932.6247,0.009299
1934.4883,0.010223
1936.3520,0.010118
1938.2157,0.009931
1940.0793,0.009864
1941.9430,0.009367
1943.8067,0.008275
1945.6704,0.008619
1947.5340,0.008415
1949.3977,0.008710
1951.2614,0.008779
1953.1250,0.008508
1954.9887,0.007973
1956.8524,0.008482
1958.7160,0.007754
1960.5797,0.007088
1962.4434,0.006339
1964.3070,0.005107
1966.1707,0.003337
1968.0344,0.003431
1969.8980,0.003241
1971.7617,0.003466
1973.6254,0.002531
1975.4891,0.002270
1977.3527,0.002803
1979.2164,0.003678
1981.0801,0.003885
1982.9437,0.005919
1984.8074,0.006978
1986.6711,0.006816
1988.5347,0.005954
1990.3984,0.007027
1992.2621,0.007185
1994.1257,0.006458
1995.9894,0.006193
1997.8531,0.006345
1999.7167,0.006644
2001.5804,0.007481
2003.4441,0.007190
2005.3078,0.007013
2007.1714,0.005379
2009.0351,0.005266
2010.8988,0.004354
2012.7624,0.004081
2014.6261,0.004230
2016.4898,0.004445
2018.3534,0.004071
2020.2171,0.004678
2022.0808,0.004937
2023.9444,0.004052
2025.8081,0.002610
2027.6718,0.003858
2029.5355,0.005213
2031.3991,0.005169
2033.2628,0.003755
2035.1265,0.003689
2036.9901,0.003557
2038.8538,0.004334
2040.7175,0.006084
2042.5811,0.007229
2044.4448,0.007052
2046.3085,0.007899
2048.1721,0.008257
2050.0358,0.009129
2051.8995,0.009714
2053.7631,0.009859
2055.6268,0.009618
2057.4905,0.010156
2059.3542,0.010395
2061.2178,0.011183
2063.0815,0.011093
2064.9452,0.011039
2066.8088,0.011924
2068.6725,0.012813
2070.5362,0.012487
2072.3998,0.012816
2074.2635,0.012827
2076.1272,0.013021
2077.9908,0.013032
2079.8545,0.013891
2081.7182,0.013873
2083.5819,0.013784
2085.4455,0.013782
2087.3092,0.013776
2089.1729,0.013873
2091.0365,0.013973
2092.9002,0.013999
2094.7639,0.014625
2096.6275,0.014475
2098.4912,0.013806
2100.3549,0.013801
2102.2185,0.014190
2104.0822,0.014358
2105.9459,0.014746
2107.8095,0.014398
2109.6732,0.014255
2111.5369,0.014583
2113.4006,0.015198
2115.2642,0.015338
2117.1279,0.015404
2118.9916,0.015367
2120.8552,0.015011
2122.7189,0.014384
2124.5826,0.014652
2126.4462,0.014522
2128.3099,0.014134
2130.1736,0.012915
2132.0372,0.012631
2133.9009,0.013045
2135.7646,0.013281
2137.6282,0.012870
2139.4919,0.012718
2141.3556,0.012419
2143.2193,0.011317
2145.0829,0.009064
2146.9466,0.008786
2148.8103,0.009558
2150.6739,0.009234
2152.5376,0.007049
2154.4013,0.005563
2156.2649,0.004293
2158.1286,0.003238
2159.9923,0.002196
2161.8559,0.004420
2163.7196,0.005921
2165.5833,0.008181
2167.4470,0.008354
2169.3106,0.007735
2171.1743,0.007795
2173.0380,0.009055
2174.9016,0.009980
2176.7653,0.009526
2178.6290,0.008213
2180.4926,0.008330
2182.3563,0.008337
2184.2200,0.009865
2186.0836,0.009456
2187.9473,0.009820
2189.8110,0.011039
2191.6746,0.011152
2193.5383,0.011608
2195.4020,0.011590
2197.2657,0.010908
2199.1293,0.011934
2200.9930,0.011850
2202.8567,0.012601
2204.7203,0.012760
2206.5840,0.013569
2208.4477,0.013658
2210.3113,0.013513
2212.1750,0.013859
2214.0387,0.014040
2215.9023,0.014074
2217.7660,0.013880
2219.6297,0.013345
2221.4934,0.013803
2223.3570,0.014282
2225.2207,0.015036
2227.0844,0.015612
2228.9480,0.016209
2230.8117,0.015907
2232.6754,0.015916
2234.5390,0.016432
2236.4027,0.016361
2238.2664,0.016612
2240.1300,0.017222
2241.9937,0.016834
2243.8574,0.016807
2245.7210,0.016508
2247.5847,0.016621
2249.4484,0.017406
2251.3121,0.017520
2253.1757,0.017278
2255.0394,0.017958
2256.9031,0.018668
2258.7667,0.018863
2260.6304,0.018441
2262.4941,0.018712
2264.3577,0.019348
2266.2214,0.019523
2268.0851,0.019058
2269.9487,0.019675
2271.8124,0.020392
2273.6761,0.021033
2275.5397,0.021068
2277.4034,0.021425
2279.2671,0.022145
2281.1308,0.022657
2282.9944,0.022604
2284.8581,0.022754
2286.7218,0.022907
2288.5854,0.022981
2290.4491,0.023035
2292.3128,0.022755
2294.1764,0.022398
2296.0401,0.022513
2297.9038,0.022701
2299.7674,0.022901
2301.6311,0.023310
2303.4948,0.023652
2305.3585,0.023713
2307.2221,0.023740
2309.0858,0.023892
2310.9495,0.024038
2312.8131,0.024027
2314.6768,0.023643
2316.5405,0.023232
2318.4041,0.023417
2320.2678,0.023579
2322.1315,0.023718
2323.9951,0.023782
2325.8588,0.023580
2327.7225,0.022952
2329.5861,0.022560
2331.4498,0.022308
2333.3135,0.022093
2335.1772,0.022009
2337.0408,0.021981
2338.9045,0.022408
2340.7682,0.022963
2342.6318,0.022958
2344.4955,0.022821
2346.3592,0.022658
2348.2228,0.022434
2350.0865,0.022073
2351.9502,0.022079
2353.8138,0.022146
2355.6775,0.021948
2357.5412,0.021914
2359.4049,0.022139
2361.2685,0.021566
2363.1322,0.021526
2364.9959,0.022125
2366.8595,0.022360
2368.7232,0.022318
2370.5869,0.023077
2372.4505,0.023478
2374.3142,0.023659
2376.1779,0.023708
2378.0415,0.023462
2379.9052,0.023209
2381.7689,0.023138
2383.6325,0.023100
2385.4962,0.023299
2387.3599,0.023464
2389.2236,0.023563
2391.0872,0.023663
2392.9509,0.023689
2394.8146,0.023661
2396.6782,0.023820
2398.5419,0.023928
2400.4056,0.023980
2402.2692,0.024116
2404.1329,0.024209
2405.9966,0.024103
2407.8602,0.024047
2409.7239,0.024171
2411.5876,0.024371
2413.4512,0.024210
2415.3149,0.024151
2417.1786,0.024577
2419.0423,0.024735
2420.9059,0.024701
2422.7696,0.025082
2424.6333,0.025073
2426.4969,0.025133
2428.3606,0.025182
2430.2243,0.025260
2432.0879,0.025443
2433.9516,0.025563
2435.8153,0.025743
2437.6789,0.025762
2439.5426,0.025532
2441.4063,0.025496
2443.2700,0.025360
2445.1336,0.025197
2446.9973,0.025352
2448.8610,0.025686
2450.7246,0.025890
2452.5883,0.025755
2454.4520,0.025655
2456.3156,0.025529
2458.1793,0.025361
2460.0430,0.025401
2461.9066,0.025493
2463.7703,0.025124
2465.6340,0.024801
2467.4976,0.025239
2469.3613,0.025566
2471.2250,0.025566
2473.0887,0.025573
2474.9523,0.025526
2476.8160,0.025567
2478.6797,0.025377
2480.5433,0.025443
2482.4070,0.025946
2484.2707,0.025878
2486.1343,0.026033
2487.9980,0.026498
2489.8617,0.026694
2491.7253,0.027009
2493.5890,0.027232
2495.4527,0.027330
2497.3164,0.027489
2499.1800,0.027322
2501.0437,0.027253
2502.9074,0.027333
2504.7710,0.027547
2506.6347,0.027607
2508.4984,0.027644
2510.3620,0.027851
2512.2257,0.028006
2514.0894,0.028060
2515.9530,0.028067
2517.8167,0.027873
2519.6804,0.027824
2521.5440,0.028022
2523.4077,0.028262
2525.2714,0.028397
2527.1351,0.028426
