Wavenumber,Intensity
650.4205,0.167995
652.2841,0.164006
654.1478,0.161779
656.0115,0.160030
657.8751,0.157939
659.7388,0.155350
661.6025,0.153477
663.4661,0.152562
665.3298,0.152690
667.1935,0.153338
669.0571,0.153241
670.9208,0.151281
672.7845,0.149981
674.6481,0.147551
676.5118,0.146764
678.3755,0.148394
680.2392,0.149256
682.1028,0.147352
683.9665,0.147637
685.8302,0.147732
687.6938,0.147035
689.5575,0.147098
691.4212,0.147364
693.2848,0.145859
695.1485,0.145163
697.0122,0.146598
698.8758,0.147628
700.7395,0.147360
702.6032,0.147552
704.4669,0.145809
706.3305,0.143034
708.1942,0.138233
710.0579,0.131232
711.9215,0.124135
713.7852,0.118346
715.6489,0.113665
717.5125,0.109218
719.3762,0.104559
721.2399,0.100545
723.1035,0.096104
724.9672,0.091854
726.8309,0.088731
728.6945,0.085550
730.5582,0.082775
732.4219,0.079601
734.2856,0.075980
736.1492,0.073668
738.0129,0.072439
739.8766,0.072636
741.7402,0.074475
743.6039,0.076483
745.4676,0.078222
747.3312,0.079109
749.1949,0.078476
751.0586,0.077214
752.9222,0.076340
754.7859,0.076009
756.6496,0.075479
758.5132,0.074550
760.3769,0.074140
762.2406,0.074044
764.1043,0.073551
765.9679,0.073108
767.8316,0.072805
769.6953,0.072503
771.5589,0.072836
773.4226,0.073332
775.2863,0.073604
777.1499,0.074060
779.0136,0.074523
780.8773,0.075079
782.7409,0.076231
784.6046,0.077481
786.4683,0.078900
788.3320,0.080615
790.1956,0.082347
792.0593,0.083787
793.9230,0.085318
795.7866,0.087067
797.6503,0.088327
799.5140,0.089357
801.3776,0.090152
803.2413,0.090503
805.1050,0.090083
806.9686,0.088979
808.8323,0.087481
810.6960,0.085685
812.5596,0.083348
814.4233,0.080881
816.2870,0.078351
818.1507,0.075874
820.0143,0.073895
821.8780,0.072424
823.7417,0.071471
825.6053,0.071500
827.4690,0.072725
829.3327,0.073328
831.1963,0.068846
833.0600,0.059350
834.9237,0.051263
836.7873,0.047680
838.6510,0.046483
840.5147,0.045912
842.3784,0.045892
844.2420,0.045932
846.1057,0.045774
847.9694,0.045541
849.8330,0.045195
851.6967,0.044725
853.5604,0.044684
855.4240,0.044806
857.2877,0.044624
859.1514,0.044436
861.0150,0.044292
862.8787,0.044175
864.7424,0.044239
866.6060,0.044341
868.4697,0.044239
870.3334,0.044231
872.1971,0.044492
874.0607,0.044745
875.9244,0.044956
877.7881,0.045187
879.6517,0.045518
881.5154,0.045832
883.3791,0.046134
885.2427,0.046431
887.1064,0.046676
888.9701,0.047040
890.8337,0.047687
892.6974,0.048394
894.5611,0.049078
896.4247,0.049859
898.2884,0.050866
900.1521,0.051987
902.0158,0.053614
903.8794,0.056059
905.7431,0.059073
907.6068,0.062587
909.4704,0.066758
911.3341,0.071919
913.1978,0.077878
915.0614,0.080712
916.9251,0.074833
918.7888,0.062610
920.6524,0.052507
922.5161,0.047895
924.3798,0.046504
926.2435,0.046247
928.1071,0.046469
929.9708,0.046921
931.8345,0.047540
933.6981,0.048173
935.5618,0.048785
937.4255,0.049437
939.2891,0.050130
941.1528,0.050768
943.0165,0.051461
944.8801,0.052351
946.7438,0.053363
948.6075,0.054146
950.4711,0.054871
952.3348,0.055717
954.1985,0.056652
956.0622,0.057622
957.9258,0.058544
959.7895,0.059614
961.6532,0.060861
963.5168,0.062108
965.3805,0.063356
967.2442,0.065099
969.1078,0.067416
970.9715,0.069707
972.8352,0.072242
974.6988,0.076306
976.5625,0.083466
978.4262,0.095632
980.2899,0.112813
982.1535,0.120736
984.0172,0.102625
985.8809,0.076121
987.7445,0.062972
989.6082,0.060438
991.4719,0.060640
993.3355,0.061352
995.1992,0.062242
997.0629,0.063118
998.9265,0.064006
1000.7902,0.064919
1002.6539,0.065873
1004.5175,0.066860
1006.3812,0.067870
1008.2449,0.068990
1010.1086,0.070069
1011.9722,0.070911
1013.8359,0.071616
1015.6996,0.072180
1017.5632,0.072532
1019.4269,0.072755
1021.2906,0.072992
1023.1542,0.073247
1025.0179,0.073495
1026.8816,0.073783
1028.7452,0.074304
1030.6089,0.075044
1032.4726,0.075879
1034.3362,0.076898
1036.1999,0.078160
1038.0636,0.079704
1039.9273,0.081546
1041.7909,0.083750
1043.6546,0.086440
1045.5183,0.089360
1047.3819,0.091606
1049.2456,0.091511
1051.1093,0.087548
1052.9729,0.080529
1054.8366,0.073508
1056.7003,0.068726
1058.5639,0.066424
1060.4276,0.065803
1062.2913,0.066065
1064.1550,0.066658
1066.0186,0.067420
1067.8823,0.068517
1069.7460,0.069911
1071.6096,0.071399
1073.4733,0.072844
1075.3370,0.074334
1077.2006,0.075934
1079.0643,0.077691
1080.9280,0.079685
1082.7916,0.081890
1084.6553,0.084353
1086.5190,0.086987
1088.3826,0.089784
1090.2463,0.092913
1092.1100,0.096470
1093.9737,0.100407
1095.8373,0.104688
1097.7010,0.109337
1099.5647,0.114219
1101.4283,0.119190
1103.2920,0.123698
1105.1557,0.126700
1107.0193,0.127148
1108.8830,0.123990
1110.7467,0.116862
1112.6103,0.107261
1114.4740,0.097203
1116.3377,0.087878
1118.2014,0.080151
1120.0650,0.074309
1121.9287,0.070247
1123.7924,0.067589
1125.6560,0.065698
1127.5197,0.064025
1129.3834,0.062260
1131.2470,0.060411
1133.1107,0.058707
1134.9744,0.057370
1136.8380,0.056353
1138.7017,0.055684
1140.5654,0.055332
1142.4290,0.055178
1144.2927,0.055144
1146.1564,0.055081
1148.0201,0.055055
1149.8837,0.055196
1151.7474,0.055473
1153.6111,0.055923
1155.4747,0.056615
1157.3384,0.057443
1159.2021,0.058394
1161.0657,0.059617
1162.9294,0.061215
1164.7931,0.063292
1166.6567,0.065902
1168.5204,0.068886
1170.3841,0.072060
1172.2477,0.074461
1174.1114,0.074468
1175.9751,0.071596
1177.8388,0.067242
1179.7024,0.063331
1181.5661,0.060850
1183.4298,0.059620
1185.2934,0.059082
1187.1571,0.058899
1189.0208,0.058820
1190.8844,0.058747
1192.7481,0.058710
1194.6118,0.058703
1196.4754,0.058759
1198.3391,0.058897
1200.2028,0.059150
1202.0665,0.059448
1203.9301,0.059667
1205.7938,0.059907
1207.6575,0.060174
1209.5211,0.060403
1211.3848,0.060699
1213.2485,0.061080
1215.1121,0.061490
1216.9758,0.061902
1218.8395,0.062265
1220.7031,0.062608
1222.5668,0.062943
1224.4305,0.063273
1226.2941,0.063630
1228.1578,0.063939
1230.0215,0.064257
1231.8852,0.064671
1233.7488,0.065141
1235.6125,0.065613
1237.4762,0.066086
1239.3398,0.066576
1241.2035,0.067101
1243.0672,0.067670
1244.9308,0.068223
1246.7945,0.068753
1248.6582,0.069344
1250.5218,0.069970
1252.3855,0.070539
1254.2492,0.071169
1256.1129,0.071868
1257.9765,0.072657
1259.8402,0.073621
1261.7039,0.074546
1263.5675,0.075373
1265.4312,0.076094
1267.2949,0.076458
1269.1585,0.076392
1271.0222,0.076166
1272.8859,0.076111
1274.7495,0.076413
1276.6132,0.077040
1278.4769,0.077877
1280.3405,0.078980
1282.2042,0.080350
1284.0679,0.081852
1285.9316,0.083515
1287.7952,0.085408
1289.6589,0.087495
1291.5226,0.089912
1293.3862,0.092865
1295.2499,0.096336
1297.1136,0.100394
1298.9772,0.105224
1300.8409,0.110968
1302.7046,0.117058
1304.5682,0.121616
1306.4319,0.121588
1308.2956,0.113786
1310.1592,0.098530
1312.0229,0.081823
1313.8866,0.069938
1315.7503,0.064786
1317.6139,0.064150
1319.4776,0.065587
1321.3413,0.067523
1323.2049,0.069635
1325.0686,0.072057
1326.9323,0.074539
1328.7959,0.076918
1330.6596,0.079003
1332.5233,0.080579
1334.3869,0.081413
1336.2506,0.081902
1338.1143,0.083022
1339.9780,0.084586
1341.8416,0.085083
1343.7053,0.085122
1345.5690,0.085746
1347.4326,0.086656
1349.2963,0.087834
1351.1600,0.089207
1353.0236,0.090747
1354.8873,0.092705
1356.7510,0.094615
1358.6146,0.096278
1360.4783,0.098571
1362.3420,0.102254
1364.2056,0.105522
1366.0693,0.107356
1367.9330,0.109973
1369.7967,0.113102
1371.6603,0.115799
1373.5240,0.119400
1375.3877,0.123230
1377.2513,0.125683
1379.1150,0.128846
1380.9787,0.132836
1382.8423,0.136936
1384.7060,0.141739
1386.5697,0.147717
1388.4333,0.153504
1390.2970,0.156606
1392.1607,0.158963
1394.0244,0.160214
1395.8880,0.156714
1397.7517,0.150582
1399.6154,0.143198
1401.4790,0.135573
1403.3427,0.129428
1405.2064,0.119973
1407.0700,0.106493
1408.9337,0.093266
1410.7974,0.080764
1412.6610,0.071126
1414.5247,0.066141
1416.3884,0.065375
1418.2520,0.068868
1420.1157,0.075689
1421.9794,0.079599
1423.8431,0.078789
1425.7067,0.072165
1427.5704,0.064504
1429.4341,0.059392
1431.2977,0.056849
1433.1614,0.056372
1435.0251,0.057520
1436.8887,0.060377
1438.7524,0.062229
1440.6161,0.062999
1442.4797,0.064345
1444.3434,0.065648
1446.2071,0.066718
1448.0707,0.067264
1449.9344,0.066022
1451.7981,0.063672
1453.6618,0.061512
1455.5254,0.061325
1457.3891,0.064388
1459.2528,0.065530
1461.1164,0.064936
1462.9801,0.065480
1464.8438,0.066367
1466.7074,0.065670
1468.5711,0.064098
1470.4348,0.063456
1472.2984,0.064342
1474.1621,0.065246
1476.0258,0.064704
1477.8895,0.064200
1479.7531,0.064019
1481.6168,0.064389
1483.4805,0.064450
1485.3441,0.064573
1487.2078,0.065759
1489.0715,0.067933
1490.9351,0.069308
1492.7988,0.068949
1494.6625,0.069095
1496.5261,0.071151
1498.3898,0.072935
1500.2535,0.073151
1502.1171,0.072896
1503.9808,0.073084
1505.8445,0.075547
1507.7082,0.080879
1509.5718,0.080449
1511.4355,0.080216
1513.2992,0.080960
1515.1628,0.082151
1517.0265,0.083852
1518.8902,0.085047
1520.7538,0.086655
1522.6175,0.088727
1524.4812,0.088724
1526.3448,0.089637
1528.2085,0.090192
1530.0722,0.090370
1531.9359,0.091752
1533.7995,0.093877
1535.6632,0.093952
1537.5269,0.094321
1539.3905,0.097703
1541.2542,0.102392
1543.1179,0.103045
1544.9815,0.104210
1546.8452,0.105226
1548.7089,0.106571
1550.5725,0.108790
1552.4362,0.110422
1554.2999,0.111898
1556.1635,0.114411
1558.0272,0.119604
1559.8909,0.126185
1561.7546,0.122957
1563.6182,0.123045
1565.4819,0.125015
1567.3456,0.127207
1569.2092,0.130285
1571.0729,0.132291
1572.9366,0.133037
1574.8002,0.136320
1576.6639,0.140608
1578.5276,0.141299
1580.3912,0.142090
1582.2549,0.144147
1584.1186,0.145693
1585.9822,0.146761
1587.8459,0.147310
1589.7096,0.147228
1591.5733,0.146736
1593.4369,0.146110
1595.3006,0.144858
1597.1643,0.143067
1599.0279,0.141207
1600.8916,0.139250
1602.7553,0.137044
1604.6189,0.135140
1606.4826,0.133840
1608.3463,0.132404
1610.2099,0.130403
1612.0736,0.128168
1613.9373,0.126315
1615.8010,0.124028
1617.6646,0.117437
1619.5283,0.111168
1621.3920,0.108106
1623.2556,0.103333
1625.1193,0.096533
1626.9830,0.090615
1628.8466,0.083423
1630.7103,0.076041
1632.5740,0.070646
1634.4376,0.065726
1636.3013,0.059093
1638.1650,0.053890
1640.0286,0.052328
1641.8923,0.051231
1643.7560,0.051345
1645.6197,0.052688
1647.4833,0.054818
1649.3470,0.056376
1651.2107,0.058749
1653.0743,0.063015
1654.9380,0.065487
1656.8017,0.065366
1658.6653,0.066490
1660.5290,0.067520
1662.3927,0.067778
1664.2563,0.066526
1666.1200,0.065481
1667.9837,0.065198
1669.8474,0.064436
1671.7110,0.063004
1673.5747,0.063170
1675.4384,0.064447
1677.3020,0.066097
1679.1657,0.068073
1681.0294,0.071379
1682.8930,0.075293
1684.7567,0.078729
1686.6204,0.078319
1688.4840,0.077920
1690.3477,0.076749
1692.2114,0.074791
1694.0750,0.073389
1695.9387,0.071447
1697.8024,0.067405
1699.6661,0.065085
1701.5297,0.058719
1703.3934,0.053277
1705.2571,0.048125
1707.1207,0.040545
1708.9844,0.034859
1710.8481,0.030896
1712.7117,0.027763
1714.5754,0.025855
1716.4391,0.024224
1718.3027,0.022976
1720.1664,0.021548
1722.0301,0.020620
1723.8937,0.019274
1725.7574,0.017536
1727.6211,0.015932
1729.4848,0.014590
1731.3484,0.013179
1733.2121,0.012463
1735.0758,0.011445
1736.9394,0.010860
1738.8031,0.010527
1740.6668,0.010248
1742.5304,0.010020
1744.3941,0.009971
1746.2578,0.009420
1748.1214,0.008967
1749.9851,0.008859
1751.8488,0.008855
1753.7125,0.008534
1755.5761,0.008411
1757.4398,0.008235
1759.3035,0.008070
1761.1671,0.008036
1763.0308,0.008113
1764.8945,0.007914
1766.7581,0.007959
1768.6218,0.007989
1770.4855,0.007767
1772.3491,0.007600
1774.2128,0.007748
1776.0765,0.007721
1777.9401,0.007867
1779.8038,0.007860
1781.6675,0.007746
1783.5312,0.007741
1785.3948,0.007934
1787.2585,0.007860
1789.1222,0.007919
1790.9858,0.007845
1792.8495,0.007672
1794.7132,0.007634
1796.5768,0.007939
1798.4405,0.008010
1800.3042,0.008056
1802.1678,0.007959
1804.0315,0.007999
1805.8952,0.007965
1807.7589,0.008151
1809.6225,0.008311
1811.4862,0.008302
1813.3499,0.008138
1815.2135,0.008080
1817.0772,0.007958
1818.9409,0.008137
1820.8045,0.008232
1822.6682,0.008140
1824.5319,0.007919
1826.3955,0.007892
1828.2592,0.007907
1830.1229,0.008087
1831.9865,0.008008
1833.8502,0.007948
1835.7139,0.007964
1837.5776,0.008011
1839.4412,0.007833
1841.3049,0.007957
1843.1686,0.008055
1845.0322,0.007948
1846.8959,0.007752
1848.7596,0.007915
1850.6232,0.007809
1852.4869,0.007857
1854.3506,0.008095
1856.2142,0.008317
1858.0779,0.008242
1859.9416,0.008169
1861.8052,0.008176
1863.6689,0.008333
1865.5326,0.008082
1867.3963,0.008117
1869.2599,0.008320
1871.1236,0.008437
1872.9873,0.008269
1874.8509,0.008450
1876.7146,0.008509
1878.5783,0.008451
1880.4419,0.008117
1882.3056,0.008017
1884.1693,0.007901
1886.0329,0.008000
1887.8966,0.008149
1889.7603,0.008270
1891.6240,0.008129
1893.4876,0.008180
1895.3513,0.008116
1897.2150,0.008216
1899.0786,0.008292
1900.9423,0.008339
1902.8060,0.008291
1904.6696,0.008204
1906.5333,0.008073
1908.3970,0.008044
1910.2606,0.007841
1912.1243,0.008316
1913.9880,0.008468
1915.8516,0.008498
1917.7153,0.008540
1919.5790,0.008577
1921.4427,0.008476
1923.3063,0.008325
1925.1700,0.007871
1927.0337,0.008071
1928.8973,0.007787
1930.7610,0.007873
1932.6247,0.008239
1934.4883,0.008165
1936.3520,0.007779
1938.2157,0.007655
1940.0793,0.007617
1941.9430,0.008316
1943.8067,0.008172
1945.6704,0.007283
1947.5340,0.006915
1949.3977,0.007508
1951.2614,0.007435
1953.1250,0.007401
1954.9887,0.007382
1956.8524,0.007266
1958.7160,0.006266
1960.5797,0.005889
1962.4434,0.005924
1964.3070,0.004653
1966.1707,0.003234
1968.0344,0.003749
1969.8980,0.003828
1971.7617,0.003376
1973.6254,0.003128
1975.4891,0.004175
1977.3527,0.004500
1979.2164,0.004815
1981.0801,0.005385
1982.9437,0.005954
1984.8074,0.006302
1986.6711,0.007228
1988.5347,0.007841
1990.3984,0.007891
1992.2621,0.006337
1994.1257,0.005627
1995.9894,0.005998
1997.8531,0.007492
1999.7167,0.007478
2001.5804,0.006946
2003.4441,0.006689
2005.3078,0.006525
2007.1714,0.005953
2009.0351,0.005989
2010.8988,0.005554
2012.7624,0.005580
2014.6261,0.005778
2016.4898,0.005077
2018.3534,0.003291
2020.2171,0.003336
2022.0808,0.003695
2023.9444,0.005088
2025.8081,0.005657
2027.6718,0.005055
2029.5355,0.004647
2031.3991,0.005917
2033.2628,0.005069
2035.1265,0.004560
2036.9901,0.005513
2038.8538,0.005999
2040.7175,0.006012
2042.5811,0.007046
2044.4448,0.007243
2046.3085,0.006700
2048.1721,0.006463
2050.0358,0.008378
2051.8995,0.009265
2053.7631,0.008741
2055.6268,0.009022
2057.4905,0.009716
2059.3542,0.009318
2061.2178,0.009214
2063.0815,0.009387
2064.9452,0.009833
2066.8088,0.009628
2068.6725,0.009729
2070.5362,0.009859
2072.3998,0.010204
2074.2635,0.010677
2076.1272,0.011094
2077.9908,0.010947
2079.8545,0.010662
2081.7182,0.010854
2083.5819,0.011239
2085.4455,0.011030
2087.3092,0.011718
2089.1729,0.012013
2091.0365,0.011229
2092.9002,0.011278
2094.7639,0.011240
2096.6275,0.011599
2098.4912,0.012219
2100.3549,0.011571
2102.2185,0.011012
2104.0822,0.011278
2105.9459,0.011584
2107.8095,0.011638
2109.6732,0.011836
2111.5369,0.011918
2113.4006,0.012519
2115.2642,0.012603
2117.1279,0.012413
2118.9916,0.012130
2120.8552,0.012142
2122.7189,0.012020
2124.5826,0.012212
2126.4462,0.011732
2128.3099,0.011709
2130.1736,0.011914
2132.0372,0.011015
2133.9009,0.010076
2135.7646,0.010541
2137.6282,0.011260
2139.4919,0.010671
2141.3556,0.009378
2143.2193,0.009422
2145.0829,0.009516
2146.9466,0.009758
2148.8103,0.009669
2150.6739,0.008916
2152.5376,0.007646
2154.4013,0.006488
2156.2649,0.006143
2158.1286,0.006452
2159.9923,0.006089
2161.8559,0.007125
2163.7196,0.007598
2165.5833,0.007363
2167.4470,0.006893
2169.3106,0.007690
2171.1743,0.008557
2173.0380,0.008919
2174.9016,0.008572
2176.7653,0.008574
2178.6290,0.008969
2180.4926,0.009802
2182.3563,0.010115
2184.2200,0.009971
2186.0836,0.010011
2187.9473,0.010579
2189.8110,0.010261
2191.6746,0.010378
2193.5383,0.010431
2195.4020,0.009853
2197.2657,0.009972
2199.1293,0.010708
2200.9930,0.010841
2202.8567,0.011403
2204.7203,0.011213
2206.5840,0.011343
2208.4477,0.011899
2210.3113,0.011819
2212.1750,0.011465
2214.0387,0.012271
2215.9023,0.012397
2217.7660,0.012602
2219.6297,0.012270
2221.4934,0.012245
2223.3570,0.012799
2225.2207,0.013361
2227.0844,0.012558
2228.9480,0.013075
2230.8117,0.013948
2232.6754,0.013450
2234.5390,0.013020
2236.4027,0.014001
2238.2664,0.014778
2240.1300,0.014836
2241.9937,0.014472
2243.8574,0.014378
2245.7210,0.013908
2247.5847,0.014069
2249.4484,0.014855
2251.3121,0.015002
2253.1757,0.014481
2255.0394,0.014732
2256.9031,0.015549
2258.7667,0.015960
2260.6304,0.015347
2262.4941,0.014898
2264.3577,0.015411
2266.2214,0.016434
2268.0851,0.016777
2269.9487,0.016518
2271.8124,0.016339
2273.6761,0.016870
2275.5397,0.017573
2277.4034,0.017594
2279.2671,0.017338
2281.1308,0.017506
2282.9944,0.017905
2284.8581,0.018418
2286.7218,0.017987
2288.5854,0.018094
2290.4491,0.018376
2292.3128,0.018349
2294.1764,0.018160
2296.0401,0.018209
2297.9038,0.018402
2299.7674,0.018727
2301.6311,0.018609
2303.4948,0.018313
2305.3585,0.018361
2307.2221,0.018590
2309.0858,0.018857
2310.9495,0.018998
2312.8131,0.018650
2314.6768,0.018494
2316.5405,0.018625
2318.4041,0.018822
2320.2678,0.018884
2322.1315,0.019115
2323.9951,0.019214
2325.8588,0.018796
2327.7225,0.018012
2329.5861,0.017722
2331.4498,0.017562
2333.3135,0.017301
2335.1772,0.016998
2337.0408,0.017122
2338.9045,0.017565
2340.7682,0.017748
2342.6318,0.017848
2344.4955,0.017797
2346.3592,0.017467
2348.2228,0.017363
2350.0865,0.017336
2351.9502,0.017441
2353.8138,0.017324
2355.6775,0.017162
2357.5412,0.017274
2359.4049,0.017404
2361.2685,0.017387
2363.1322,0.017640
2364.9959,0.017363
2366.8595,0.017101
2368.7232,0.017537
2370.5869,0.017778
2372.4505,0.017936
2374.3142,0.018260
2376.1779,0.018139
2378.0415,0.018023
2379.9052,0.018156
2381.7689,0.018130
2383.6325,0.018224
2385.4962,0.018322
2387.3599,0.018443
2389.2236,0.018698
2391.0872,0.018640
2392.9509,0.018651
2394.8146,0.018618
2396.6782,0.018603
2398.5419,0.018498
2400.4056,0.018358
2402.2692,0.018727
2404.1329,0.019092
2405.9966,0.019048
2407.8602,0.019200
2409.7239,0.019023
2411.5876,0.018927
2413.4512,0.019177
2415.3149,0.019100
2417.1786,0.018805
2419.0423,0.019092
2420.9059,0.019419
2422.7696,0.019551
2424.6333,0.019665
2426.4969,0.019737
2428.3606,0.019969
2430.2243,0.019917
2432.0879,0.019905
2433.9516,0.019738
2435.8153,0.019676
2437.6789,0.019808
2439.5426,0.019924
2441.4063,0.019843
2443.2700,0.019782
2445.1336,0.020134
2446.9973,0.020145
2448.8610,0.019939
2450.7246,0.019824
2452.5883,0.019864
2454.4520,0.019907
2456.3156,0.020192
2458.1793,0.019902
2460.0430,0.019565
2461.9066,0.019604
2463.7703,0.019670
2465.6340,0.019792
2467.4976,0.019613
2469.3613,0.019360
2471.2250,0.019602
2473.0887,0.019895
2474.9523,0.019564
2476.8160,0.019271
2478.6797,0.019683
2480.5433,0.020040
2482.4070,0.020173
2484.2707,0.020035
2486.1343,0.020093
2487.9980,0.020110
2489.8617,0.020429
2491.7253,0.020641
2493.5890,0.020691
2495.4527,0.021108
2497.3164,0.021030
2499.1800,0.020883
2501.0437,0.021241
2502.9074,0.021243
2504.7710,0.021260
2506.6347,0.021336
2508.4984,0.021101
2510.3620,0.021199
2512.2257,0.021393
2514.0894,0.021107
2515.9530,0.020838
2517.8167,0.021271
2519.6804,0.021556
2521.5440,0.021567
2523.4077,0.021887
2525.2714,0.022415
2527.1351,0.022463
