Wavenumber,Intensity
650.4205,0.246783
652.2841,0.238389
654.1478,0.232938
656.0115,0.229864
657.8751,0.226948
659.7388,0.225599
661.6025,0.226129
663.4661,0.225748
665.3298,0.226080
667.1935,0.229247
669.0571,0.228311
670.9208,0.221901
672.7845,0.217458
674.6481,0.213627
676.5118,0.212213
678.3755,0.210983
680.2392,0.209718
682.1028,0.208971
683.9665,0.208928
685.8302,0.207881
687.6938,0.206862
689.5575,0.206118
691.4212,0.206031
693.2848,0.206812
695.1485,0.208672
697.0122,0.210512
698.8758,0.213099
700.7395,0.215069
702.6032,0.215277
704.4669,0.212754
706.3305,0.207803
708.1942,0.201237
710.0579,0.193001
711.9215,0.182838
713.7852,0.172845
715.6489,0.163547
717.5125,0.153697
719.3762,0.144565
721.2399,0.137097
723.1035,0.130692
724.9672,0.125776
726.8309,0.121397
728.6945,0.117051
730.5582,0.113064
732.4219,0.109497
734.2856,0.106310
736.1492,0.103742
738.0129,0.102430
739.8766,0.103067
741.7402,0.105790
743.6039,0.108991
745.4676,0.111042
747.3312,0.111958
749.1949,0.111626
751.0586,0.110516
752.9222,0.109087
754.7859,0.107507
756.6496,0.105972
758.5132,0.104802
760.3769,0.104253
762.2406,0.104407
764.1043,0.105410
765.9679,0.107268
767.8316,0.108546
769.6953,0.107749
771.5589,0.105950
773.4226,0.105630
775.2863,0.105948
777.1499,0.104628
779.0136,0.102789
780.8773,0.101938
782.7409,0.102145
784.6046,0.103262
786.4683,0.104978
788.3320,0.106879
790.1956,0.108774
792.0593,0.111271
793.9230,0.113879
795.7866,0.116276
797.6503,0.119002
799.5140,0.121779
801.3776,0.123193
803.2413,0.123210
805.1050,0.122567
806.9686,0.121465
808.8323,0.119817
810.6960,0.117257
812.5596,0.113947
814.4233,0.110885
816.2870,0.108027
818.1507,0.104999
820.0143,0.102886
821.8780,0.102004
823.7417,0.101627
825.6053,0.101806
827.4690,0.103394
829.3327,0.105400
831.1963,0.102061
833.0600,0.090988
834.9237,0.078834
836.7873,0.071118
838.6510,0.067931
840.5147,0.067483
842.3784,0.068594
844.2420,0.070601
846.1057,0.072026
847.9694,0.071452
849.8330,0.068644
851.6967,0.064939
853.5604,0.062178
855.4240,0.060949
857.2877,0.060347
859.1514,0.059699
861.0150,0.059185
862.8787,0.058946
864.7424,0.058892
866.6060,0.059030
868.4697,0.059325
870.3334,0.059587
872.1971,0.059769
874.0607,0.059683
875.9244,0.059543
877.7881,0.059613
879.6517,0.059702
881.5154,0.059935
883.3791,0.060461
885.2427,0.061266
887.1064,0.062363
888.9701,0.063451
890.8337,0.064042
892.6974,0.064241
894.5611,0.064760
896.4247,0.066027
898.2884,0.067891
900.1521,0.070094
902.0158,0.072265
903.8794,0.074287
905.7431,0.076896
907.6068,0.081148
909.4704,0.087626
911.3341,0.096881
913.1978,0.108777
915.0614,0.116863
916.9251,0.110498
918.7888,0.092839
920.6524,0.077936
922.5161,0.070855
924.3798,0.067868
926.2435,0.065728
928.1071,0.063893
929.9708,0.062748
931.8345,0.062491
933.6981,0.062935
935.5618,0.063893
937.4255,0.065300
939.2891,0.067264
941.1528,0.069846
943.0165,0.072002
944.8801,0.072679
946.7438,0.072450
948.6075,0.071869
950.4711,0.071089
952.3348,0.070856
954.1985,0.071585
956.0622,0.073067
957.9258,0.075048
959.7895,0.077358
961.6532,0.079807
963.5168,0.081922
965.3805,0.083586
967.2442,0.085779
969.1078,0.089043
970.9715,0.092718
972.8352,0.096969
974.6988,0.103535
976.5625,0.114603
978.4262,0.133468
980.2899,0.160990
982.1535,0.175099
984.0172,0.147886
985.8809,0.108814
987.7445,0.090760
989.6082,0.087829
991.4719,0.088697
993.3355,0.090143
995.1992,0.091537
997.0629,0.092849
998.9265,0.094133
1000.7902,0.095425
1002.6539,0.096492
1004.5175,0.097086
1006.3812,0.097328
1008.2449,0.097298
1010.1086,0.097142
1011.9722,0.097253
1013.8359,0.097833
1015.6996,0.098926
1017.5632,0.100420
1019.4269,0.102277
1021.2906,0.104390
1023.1542,0.106593
1025.0179,0.108939
1026.8816,0.111214
1028.7452,0.112987
1030.6089,0.114502
1032.4726,0.116025
1034.3362,0.117387
1036.1999,0.118555
1038.0636,0.119899
1039.9273,0.122306
1041.7909,0.126080
1043.6546,0.130833
1045.5183,0.135991
1047.3819,0.140010
1049.2456,0.140016
1051.1093,0.133471
1052.9729,0.121761
1054.8366,0.110200
1056.7003,0.102726
1058.5639,0.099390
1060.4276,0.098695
1062.2913,0.099296
1064.1550,0.100126
1066.0186,0.100522
1067.8823,0.100749
1069.7460,0.101532
1071.6096,0.103232
1073.4733,0.105536
1075.3370,0.108091
1077.2006,0.110760
1079.0643,0.113437
1080.9280,0.116332
1082.7916,0.119661
1084.6553,0.123053
1086.5190,0.126085
1088.3826,0.128853
1090.2463,0.132229
1092.1100,0.136840
1093.9737,0.142469
1095.8373,0.148981
1097.7010,0.156531
1099.5647,0.165090
1101.4283,0.174173
1103.2920,0.182691
1105.1557,0.188837
1107.0193,0.190466
1108.8830,0.185774
1110.7467,0.174701
1112.6103,0.159804
1114.4740,0.144302
1116.3377,0.130412
1118.2014,0.119332
1120.0650,0.111275
1121.9287,0.105713
1123.7924,0.101913
1125.6560,0.099134
1127.5197,0.096821
1129.3834,0.094606
1131.2470,0.092561
1133.1107,0.090881
1134.9744,0.089584
1136.8380,0.088409
1138.7017,0.087311
1140.5654,0.086417
1142.4290,0.085840
1144.2927,0.085583
1146.1564,0.085467
1148.0201,0.085198
1149.8837,0.084819
1151.7474,0.084655
1153.6111,0.084817
1155.4747,0.085287
1157.3384,0.086164
1159.2021,0.087394
1161.0657,0.089001
1162.9294,0.091071
1164.7931,0.094008
1166.6567,0.098034
1168.5204,0.102835
1170.3841,0.107754
1172.2477,0.111260
1174.1114,0.111032
1175.9751,0.106257
1177.8388,0.099241
1179.7024,0.093220
1181.5661,0.089733
1183.4298,0.088564
1185.2934,0.088395
1187.1571,0.088143
1189.0208,0.087321
1190.8844,0.085531
1192.7481,0.083066
1194.6118,0.081021
1196.4754,0.080009
1198.3391,0.079785
1200.2028,0.079817
1202.0665,0.079991
1203.9301,0.080222
1205.7938,0.080375
1207.6575,0.080401
1209.5211,0.080571
1211.3848,0.080950
1213.2485,0.081381
1215.1121,0.081817
1216.9758,0.082420
1218.8395,0.083167
1220.7031,0.083907
1222.5668,0.084641
1224.4305,0.085605
1226.2941,0.086656
1228.1578,0.087650
1230.0215,0.088783
1231.8852,0.089924
1233.7488,0.090996
1235.6125,0.092231
1237.4762,0.093469
1239.3398,0.094302
1241.2035,0.094346
1243.0672,0.094124
1244.9308,0.094285
1246.7945,0.094862
1248.6582,0.095557
1250.5218,0.096248
1252.3855,0.097009
1254.2492,0.098023
1256.1129,0.099232
1257.9765,0.100612
1259.8402,0.102152
1261.7039,0.103699
1263.5675,0.105324
1265.4312,0.107237
1267.2949,0.109132
1269.1585,0.110528
1271.0222,0.110809
1272.8859,0.109986
1274.7495,0.109199
1276.6132,0.109608
1278.4769,0.111181
1280.3405,0.113433
1282.2042,0.115964
1284.0679,0.118849
1285.9316,0.122465
1287.7952,0.127063
1289.6589,0.132406
1291.5226,0.138488
1293.3862,0.145220
1295.2499,0.151375
1297.1136,0.155765
1298.9772,0.159352
1300.8409,0.164951
1302.7046,0.173971
1304.5682,0.184233
1306.4319,0.189894
1308.2956,0.182460
1310.1592,0.160637
1312.0229,0.135974
1313.8866,0.118778
1315.7503,0.111047
1317.6139,0.109592
1319.4776,0.110723
1321.3413,0.112434
1323.2049,0.115338
1325.0686,0.120102
1326.9323,0.125429
1328.7959,0.129582
1330.6596,0.131248
1332.5233,0.131036
1334.3869,0.130881
1336.2506,0.132557
1338.1143,0.136782
1339.9780,0.141641
1341.8416,0.143032
1343.7053,0.142424
1345.5690,0.143031
1347.4326,0.144977
1349.2963,0.147459
1351.1600,0.148644
1353.0236,0.149143
1354.8873,0.151319
1356.7510,0.154547
1358.6146,0.157265
1360.4783,0.160433
1362.3420,0.165443
1364.2056,0.168317
1366.0693,0.168112
1367.9330,0.171646
1369.7967,0.178061
1371.6603,0.182870
1373.5240,0.188389
1375.3877,0.193217
1377.2513,0.195858
1379.1150,0.202911
1380.9787,0.213378
1382.8423,0.223632
1384.7060,0.233731
1386.5697,0.245338
1388.4333,0.256133
1390.2970,0.260493
1392.1607,0.264265
1394.0244,0.268932
1395.8880,0.265699
1397.7517,0.253340
1399.6154,0.238657
1401.4790,0.224768
1403.3427,0.213911
1405.2064,0.199090
1407.0700,0.176640
1408.9337,0.153674
1410.7974,0.132764
1412.6610,0.117332
1414.5247,0.108528
1416.3884,0.105551
1418.2520,0.109444
1420.1157,0.117434
1421.9794,0.119550
1423.8431,0.115239
1425.7067,0.103125
1427.5704,0.090971
1429.4341,0.084532
1431.2977,0.082578
1433.1614,0.082567
1435.0251,0.085656
1436.8887,0.093223
1438.7524,0.096289
1440.6161,0.094963
1442.4797,0.095465
1444.3434,0.096494
1446.2071,0.098077
1448.0707,0.100134
1449.9344,0.099435
1451.7981,0.096484
1453.6618,0.093864
1455.5254,0.094301
1457.3891,0.100936
1459.2528,0.101392
1461.1164,0.097817
1462.9801,0.098038
1464.8438,0.101259
1466.7074,0.101566
1468.5711,0.098582
1470.4348,0.097969
1472.2984,0.101016
1474.1621,0.102362
1476.0258,0.099914
1477.8895,0.098821
1479.7531,0.098481
1481.6168,0.100291
1483.4805,0.101716
1485.3441,0.102812
1487.2078,0.106535
1489.0715,0.113314
1490.9351,0.118372
1492.7988,0.117821
1494.6625,0.118416
1496.5261,0.125298
1498.3898,0.131864
1500.2535,0.133270
1502.1171,0.132557
1503.9808,0.132814
1505.8445,0.140011
1507.7082,0.156659
1509.5718,0.152097
1511.4355,0.147575
1513.2992,0.145646
1515.1628,0.144571
1517.0265,0.144298
1518.8902,0.141566
1520.7538,0.140273
1522.6175,0.140414
1524.4812,0.135858
1526.3448,0.134280
1528.2085,0.132637
1530.0722,0.130013
1531.9359,0.130561
1533.7995,0.134976
1535.6632,0.134203
1537.5269,0.132703
1539.3905,0.141413
1541.2542,0.157545
1543.1179,0.158424
1544.9815,0.160707
1546.8452,0.162672
1548.7089,0.165754
1550.5725,0.172627
1552.4362,0.177054
1554.2999,0.180743
1556.1635,0.186462
1558.0272,0.198097
1559.8909,0.225346
1561.7546,0.214056
1563.6182,0.209658
1565.4819,0.213465
1567.3456,0.217864
1569.2092,0.225058
1571.0729,0.232507
1572.9366,0.231097
1574.8002,0.235590
1576.6639,0.247635
1578.5276,0.249944
1580.3912,0.247851
1582.2549,0.249883
1584.1186,0.250541
1585.9822,0.249923
1587.8459,0.247146
1589.7096,0.243324
1591.5733,0.238524
1593.4369,0.234298
1595.3006,0.229754
1597.1643,0.225120
1599.0279,0.220766
1600.8916,0.217586
1602.7553,0.214924
1604.6189,0.212225
1606.4826,0.209190
1608.3463,0.206715
1610.2099,0.202491
1612.0736,0.195821
1613.9373,0.188787
1615.8010,0.183045
1617.6646,0.173772
1619.5283,0.162488
1621.3920,0.155426
1623.2556,0.148571
1625.1193,0.138836
1626.9830,0.129382
1628.8466,0.118628
1630.7103,0.107027
1632.5740,0.097934
1634.4376,0.090578
1636.3013,0.082815
1638.1650,0.075828
1640.0286,0.072469
1641.8923,0.070229
1643.7560,0.069826
1645.6197,0.071575
1647.4833,0.075263
1649.3470,0.075725
1651.2107,0.077391
1653.0743,0.085400
1654.9380,0.090444
1656.8017,0.087074
1658.6653,0.086846
1660.5290,0.086879
1662.3927,0.086310
1664.2563,0.083808
1666.1200,0.080726
1667.9837,0.078824
1669.8474,0.077403
1671.7110,0.075495
1673.5747,0.075281
1675.4384,0.077392
1677.3020,0.080064
1679.1657,0.082211
1681.0294,0.087209
1682.8930,0.093454
1684.7567,0.103388
1686.6204,0.104819
1688.4840,0.103040
1690.3477,0.101331
1692.2114,0.097780
1694.0750,0.094331
1695.9387,0.091915
1697.8024,0.087193
1699.6661,0.083486
1701.5297,0.075925
1703.3934,0.068286
1705.2571,0.060721
1707.1207,0.051467
1708.9844,0.043901
1710.8481,0.038791
1712.7117,0.035049
1714.5754,0.033300
1716.4391,0.031899
1718.3027,0.030644
1720.1664,0.028711
1722.0301,0.027491
1723.8937,0.025908
1725.7574,0.023836
1727.6211,0.021592
1729.4848,0.019945
1731.3484,0.018445
1733.2121,0.017932
1735.0758,0.016736
1736.9394,0.015597
1738.8031,0.015083
1740.6668,0.015078
1742.5304,0.014329
1744.3941,0.014115
1746.2578,0.013687
1748.1214,0.013604
1749.9851,0.013277
1751.8488,0.012774
1753.7125,0.012139
1755.5761,0.012068
1757.4398,0.011951
1759.3035,0.011854
1761.1671,0.011727
1763.0308,0.011879
1764.8945,0.011353
1766.7581,0.011301
1768.6218,0.011307
1770.4855,0.011603
1772.3491,0.011508
1774.2128,0.011372
1776.0765,0.010814
1777.9401,0.011018
1779.8038,0.011079
1781.6675,0.011161
1783.5312,0.010979
1785.3948,0.011004
1787.2585,0.010564
1789.1222,0.010701
1790.9858,0.011103
1792.8495,0.011335
1794.7132,0.010813
1796.5768,0.010741
1798.4405,0.010879
1800.3042,0.010922
1802.1678,0.010709
1804.0315,0.010832
1805.8952,0.010939
1807.7589,0.011177
1809.6225,0.011202
1811.4862,0.011159
1813.3499,0.010920
1815.2135,0.010846
1817.0772,0.010630
1818.9409,0.010736
1820.8045,0.010626
1822.6682,0.010722
1824.5319,0.010729
1826.3955,0.010756
1828.2592,0.010616
1830.1229,0.010956
1831.9865,0.010658
1833.8502,0.010253
1835.7139,0.010315
1837.5776,0.010466
1839.4412,0.010359
1841.3049,0.010454
1843.1686,0.010437
1845.0322,0.010611
1846.8959,0.010321
1848.7596,0.010621
1850.6232,0.010845
1852.4869,0.010728
1854.3506,0.010389
1856.2142,0.010367
1858.0779,0.010169
1859.9416,0.010476
1861.8052,0.010426
1863.6689,0.010352
1865.5326,0.010296
1867.3963,0.010480
1869.2599,0.010501
1871.1236,0.010657
1872.9873,0.010322
1874.8509,0.010361
1876.7146,0.010216
1878.5783,0.010268
1880.4419,0.010059
1882.3056,0.010225
1884.1693,0.010352
1886.0329,0.010338
1887.8966,0.010184
1889.7603,0.010478
1891.6240,0.010022
1893.4876,0.010078
1895.3513,0.010199
1897.2150,0.009808
1899.0786,0.009661
1900.9423,0.010015
1902.8060,0.009890
1904.6696,0.010323
1906.5333,0.010569
1908.3970,0.010591
1910.2606,0.009795
1912.1243,0.009862
1913.9880,0.010065
1915.8516,0.010402
1917.7153,0.010180
1919.5790,0.010358
1921.4427,0.010364
1923.3063,0.010387
1925.1700,0.009743
1927.0337,0.009804
1928.8973,0.009798
1930.7610,0.009806
1932.6247,0.009678
1934.4883,0.010006
1936.3520,0.009643
1938.2157,0.009798
1940.0793,0.010048
1941.9430,0.009810
1943.8067,0.008602
1945.6704,0.008701
1947.5340,0.008497
1949.3977,0.008950
1951.2614,0.008243
1953.1250,0.008114
1954.9887,0.007508
1956.8524,0.007111
1958.7160,0.006486
1960.5797,0.006230
1962.4434,0.005114
1964.3070,0.005482
1966.1707,0.004225
1968.0344,0.003474
1969.8980,0.003798
1971.7617,0.004620
1973.6254,0.004192
1975.4891,0.004650
1977.3527,0.004205
1979.2164,0.005489
1981.0801,0.005757
1982.9437,0.005215
1984.8074,0.005808
1986.6711,0.007206
1988.5347,0.007275
1990.3984,0.007623
1992.2621,0.006816
1994.1257,0.006394
1995.9894,0.006962
1997.8531,0.008348
1999.7167,0.007416
2001.5804,0.006761
2003.4441,0.006980
2005.3078,0.006610
2007.1714,0.005597
2009.0351,0.007340
2010.8988,0.006327
2012.7624,0.004945
2014.6261,0.004909
2016.4898,0.006105
2018.3534,0.004869
2020.2171,0.004036
2022.0808,0.003871
2023.9444,0.005994
2025.8081,0.005044
2027.6718,0.003874
2029.5355,0.004724
2031.3991,0.006034
2033.2628,0.006331
2035.1265,0.006877
2036.9901,0.006606
2038.8538,0.006770
2040.7175,0.006328
2042.5811,0.006999
2044.4448,0.007570
2046.3085,0.009207
2048.1721,0.010382
2050.0358,0.011035
2051.8995,0.010800
2053.7631,0.010792
2055.6268,0.010905
2057.4905,0.011615
2059.3542,0.011209
2061.2178,0.010904
2063.0815,0.011209
2064.9452,0.012175
2066.8088,0.012810
2068.6725,0.013081
2070.5362,0.013123
2072.3998,0.013364
2074.2635,0.014078
2076.1272,0.014323
2077.9908,0.013510
2079.8545,0.014295
2081.7182,0.014817
2083.5819,0.014868
2085.4455,0.015217
2087.3092,0.015316
2089.1729,0.015025
2091.0365,0.015709
2092.9002,0.015960
2094.7639,0.015970
2096.6275,0.015838
2098.4912,0.015873
2100.3549,0.015518
2102.2185,0.016651
2104.0822,0.017557
2105.9459,0.016973
2107.8095,0.016474
2109.6732,0.017094
2111.5369,0.016816
2113.4006,0.016735
2115.2642,0.017036
2117.1279,0.017035
2118.9916,0.016275
2120.8552,0.016495
2122.7189,0.017342
2124.5826,0.017608
2126.4462,0.016969
2128.3099,0.017073
2130.1736,0.016479
2132.0372,0.015101
2133.9009,0.013910
2135.7646,0.014324
2137.6282,0.013959
2139.4919,0.013528
2141.3556,0.012424
2143.2193,0.012405
2145.0829,0.012673
2146.9466,0.012182
2148.8103,0.011459
2150.6739,0.011317
2152.5376,0.009588
2154.4013,0.009292
2156.2649,0.008180
2158.1286,0.007268
2159.9923,0.006852
2161.8559,0.008291
2163.7196,0.009010
2165.5833,0.008833
2167.4470,0.008844
2169.3106,0.010759
2171.1743,0.010441
2173.0380,0.009663
2174.9016,0.009333
2176.7653,0.009566
2178.6290,0.009439
2180.4926,0.009086
2182.3563,0.009126
2184.2200,0.010753
2186.0836,0.011296
2187.9473,0.011123
2189.8110,0.010925
2191.6746,0.010958
2193.5383,0.011082
2195.4020,0.012511
2197.2657,0.013049
2199.1293,0.012525
2200.9930,0.012273
2202.8567,0.012775
2204.7203,0.013361
2206.5840,0.013456
2208.4477,0.013150
2210.3113,0.013598
2212.1750,0.014062
2214.0387,0.014079
2215.9023,0.013736
2217.7660,0.014374
2219.6297,0.014473
2221.4934,0.014632
2223.3570,0.014499
2225.2207,0.014480
2227.0844,0.015052
2228.9480,0.015404
2230.8117,0.014919
2232.6754,0.014922
2234.5390,0.015183
2236.4027,0.015162
2238.2664,0.015135
2240.1300,0.015962
2241.9937,0.016349
2243.8574,0.016903
2245.7210,0.017156
2247.5847,0.016741
2249.4484,0.016532
2251.3121,0.017348
2253.1757,0.017269
2255.0394,0.017143
2256.9031,0.017677
2258.7667,0.017906
2260.6304,0.017551
2262.4941,0.017448
2264.3577,0.017806
2266.2214,0.018526
2268.0851,0.018223
2269.9487,0.018634
2271.8124,0.019615
2273.6761,0.020013
2275.5397,0.020405
2277.4034,0.020499
2279.2671,0.020179
2281.1308,0.020815
2282.9944,0.021673
2284.8581,0.021987
2286.7218,0.021913
2288.5854,0.021749
2290.4491,0.021677
2292.3128,0.021925
2294.1764,0.022108
2296.0401,0.022069
2297.9038,0.021852
2299.7674,0.021789
2301.6311,0.021900
2303.4948,0.022050
2305.3585,0.022003
2307.2221,0.022291
2309.0858,0.022505
2310.9495,0.022622
2312.8131,0.022455
2314.6768,0.022207
2316.5405,0.022070
2318.4041,0.022347
2320.2678,0.022701
2322.1315,0.022984
2323.9951,0.023042
2325.8588,0.022468
2327.7225,0.021694
2329.5861,0.021357
2331.4498,0.021503
2333.3135,0.021450
2335.1772,0.021042
2337.0408,0.021277
2338.9045,0.021713
2340.7682,0.021978
2342.6318,0.022106
2344.4955,0.022223
2346.3592,0.022014
2348.2228,0.021459
2350.0865,0.021299
2351.9502,0.021377
2353.8138,0.021283
2355.6775,0.021355
2357.5412,0.021218
2359.4049,0.021078
2361.2685,0.021254
2363.1322,0.021528
2364.9959,0.022062
2366.8595,0.022457
2368.7232,0.022084
2370.5869,0.022073
2372.4505,0.022793
2374.3142,0.023223
2376.1779,0.023151
2378.0415,0.023260
2379.9052,0.023350
2381.7689,0.023078
2383.6325,0.023049
2385.4962,0.023166
2387.3599,0.023028
2389.2236,0.023216
2391.0872,0.023606
2392.9509,0.023718
2394.8146,0.023563
2396.6782,0.023553
2398.5419,0.024060
2400.4056,0.024308
2402.2692,0.023912
2404.1329,0.023758
2405.9966,0.024207
2407.8602,0.024712
2409.7239,0.024547
2411.5876,0.024469
2413.4512,0.024798
2415.3149,0.025090
2417.1786,0.025173
2419.0423,0.025141
2420.9059,0.025232
2422.7696,0.025702
2424.6333,0.025859
2426.4969,0.025918
2428.3606,0.025862
2430.2243,0.025931
2432.0879,0.026110
2433.9516,0.026335
2435.8153,0.026461
2437.6789,0.026347
2439.5426,0.026461
2441.4063,0.026660
2443.2700,0.026628
2445.1336,0.026680
2446.9973,0.026807
2448.8610,0.026588
2450.7246,0.026579
2452.5883,0.026723
2454.4520,0.026546
2456.3156,0.026460
2458.1793,0.026521
2460.0430,0.026721
2461.9066,0.026704
2463.7703,0.026632
2465.6340,0.026515
2467.4976,0.026604
2469.3613,0.026843
2471.2250,0.026709
2473.0887,0.026559
2474.9523,0.026915
2476.8160,0.027147
2478.6797,0.027060
2480.5433,0.027191
2482.4070,0.027687
2484.2707,0.027971
2486.1343,0.028101
2487.9980,0.028128
2489.8617,0.028120
2491.7253,0.028430
2493.5890,0.028833
2495.4527,0.029106
2497.3164,0.029357
2499.1800,0.029423
2501.0437,0.029533
2502.9074,0.029799
2504.7710,0.030042
2506.6347,0.030215
2508.4984,0.030570
2510.3620,0.030996
2512.2257,0.030763
2514.0894,0.030593
2515.9530,0.030871
2517.8167,0.031097
2519.6804,0.031370
2521.5440,0.031703
2523.4077,0.032174
2525.2714,0.032599
2527.1351,0.032892
