Wavenumber,Intensity
650.4205,0.272961
652.2841,0.268677
654.1478,0.261320
656.0115,0.254506
657.8751,0.250958
659.7388,0.244490
661.6025,0.239925
663.4661,0.236026
665.3298,0.232551
667.1935,0.230364
669.0571,0.231421
670.9208,0.232589
672.7845,0.233835
674.6481,0.234767
676.5118,0.236079
678.3755,0.235144
680.2392,0.234841
682.1028,0.234946
683.9665,0.235079
685.8302,0.234572
687.6938,0.235530
689.5575,0.234820
691.4212,0.234670
693.2848,0.235002
695.1485,0.236545
697.0122,0.237598
698.8758,0.238049
700.7395,0.237100
702.6032,0.235222
704.4669,0.231357
706.3305,0.224139
708.1942,0.214275
710.0579,0.204100
711.9215,0.192953
713.7852,0.181965
715.6489,0.172799
717.5125,0.164695
719.3762,0.156354
721.2399,0.148664
723.1035,0.142493
724.9672,0.137190
726.8309,0.130651
728.6945,0.124950
730.5582,0.120322
732.4219,0.115906
734.2856,0.111317
736.1492,0.107675
738.0129,0.105711
739.8766,0.106068
741.7402,0.108769
743.6039,0.111643
745.4676,0.113369
747.3312,0.114214
749.1949,0.113440
751.0586,0.111610
752.9222,0.110498
754.7859,0.110181
756.6496,0.109651
758.5132,0.108982
760.3769,0.107888
762.2406,0.106890
764.1043,0.106924
765.9679,0.107250
767.8316,0.107002
769.6953,0.106939
771.5589,0.107412
773.4226,0.108034
775.2863,0.109383
777.1499,0.110732
779.0136,0.111622
780.8773,0.113180
782.7409,0.115310
784.6046,0.117645
786.4683,0.120184
788.3320,0.123185
790.1956,0.126235
792.0593,0.128888
793.9230,0.131735
795.7866,0.135029
797.6503,0.137933
799.5140,0.140145
801.3776,0.141904
803.2413,0.143187
805.1050,0.143285
806.9686,0.142274
808.8323,0.140513
810.6960,0.137784
812.5596,0.133889
814.4233,0.129502
816.2870,0.125785
818.1507,0.122547
820.0143,0.119611
821.8780,0.117544
823.7417,0.116729
825.6053,0.117308
827.4690,0.119537
829.3327,0.120492
831.1963,0.112428
833.0600,0.096124
834.9237,0.082013
836.7873,0.074841
838.6510,0.071901
840.5147,0.070287
842.3784,0.069352
844.2420,0.069056
846.1057,0.068852
847.9694,0.068344
849.8330,0.067387
851.6967,0.065879
853.5604,0.064628
855.4240,0.063870
857.2877,0.063484
859.1514,0.063096
861.0150,0.062813
862.8787,0.062855
864.7424,0.062797
866.6060,0.062815
868.4697,0.063110
870.3334,0.063290
872.1971,0.063417
874.0607,0.063529
875.9244,0.063588
877.7881,0.063775
879.6517,0.064174
881.5154,0.064468
883.3791,0.064796
885.2427,0.065336
887.1064,0.065911
888.9701,0.066552
890.8337,0.067278
892.6974,0.068112
894.5611,0.069113
896.4247,0.070229
898.2884,0.071595
900.1521,0.073559
902.0158,0.076166
903.8794,0.079461
905.7431,0.083974
907.6068,0.089802
909.4704,0.096502
911.3341,0.104500
913.1978,0.114031
915.0614,0.118630
916.9251,0.108378
918.7888,0.088542
920.6524,0.073314
922.5161,0.066466
924.3798,0.064421
926.2435,0.064128
928.1071,0.064455
929.9708,0.065058
931.8345,0.065753
933.6981,0.066511
935.5618,0.067291
937.4255,0.068068
939.2891,0.068840
941.1528,0.069628
943.0165,0.070541
944.8801,0.071501
946.7438,0.072461
948.6075,0.073392
950.4711,0.074494
952.3348,0.075654
954.1985,0.076816
956.0622,0.078223
957.9258,0.079527
959.7895,0.080751
961.6532,0.082261
963.5168,0.084126
965.3805,0.086405
967.2442,0.089174
969.1078,0.092411
970.9715,0.095885
972.8352,0.099934
974.6988,0.106470
976.5625,0.118211
978.4262,0.138867
980.2899,0.168442
982.1535,0.180790
984.0172,0.147429
985.8809,0.102969
987.7445,0.082374
989.6082,0.078355
991.4719,0.078089
993.3355,0.078565
995.1992,0.079290
997.0629,0.079925
998.9265,0.080524
1000.7902,0.081143
1002.6539,0.081740
1004.5175,0.082245
1006.3812,0.082766
1008.2449,0.083411
1010.1086,0.084014
1011.9722,0.084432
1013.8359,0.084930
1015.6996,0.085728
1017.5632,0.086837
1019.4269,0.088218
1021.2906,0.089864
1023.1542,0.091644
1025.0179,0.093432
1026.8816,0.095374
1028.7452,0.097557
1030.6089,0.099693
1032.4726,0.101263
1034.3362,0.102199
1036.1999,0.103657
1038.0636,0.106667
1039.9273,0.111048
1041.7909,0.116348
1043.6546,0.122387
1045.5183,0.128463
1047.3819,0.132667
1049.2456,0.132328
1051.1093,0.125563
1052.9729,0.114027
1054.8366,0.102757
1056.7003,0.095509
1058.5639,0.092334
1060.4276,0.091529
1062.2913,0.091798
1064.1550,0.092679
1066.0186,0.094038
1067.8823,0.095763
1069.7460,0.097807
1071.6096,0.100087
1073.4733,0.102511
1075.3370,0.105016
1077.2006,0.107720
1079.0643,0.110652
1080.9280,0.113785
1082.7916,0.117298
1084.6553,0.121251
1086.5190,0.125590
1088.3826,0.130383
1090.2463,0.135794
1092.1100,0.141943
1093.9737,0.148926
1095.8373,0.156806
1097.7010,0.165494
1099.5647,0.174831
1101.4283,0.184361
1103.2920,0.193221
1105.1557,0.199756
1107.0193,0.201416
1108.8830,0.196163
1110.7467,0.183853
1112.6103,0.167211
1114.4740,0.149917
1116.3377,0.134287
1118.2014,0.121549
1120.0650,0.112196
1121.9287,0.105918
1123.7924,0.101723
1125.6560,0.098588
1127.5197,0.095791
1129.3834,0.092959
1131.2470,0.090248
1133.1107,0.087854
1134.9744,0.085931
1136.8380,0.084691
1138.7017,0.083985
1140.5654,0.083698
1142.4290,0.083753
1144.2927,0.083952
1146.1564,0.084168
1148.0201,0.084376
1149.8837,0.084734
1151.7474,0.085309
1153.6111,0.086074
1155.4747,0.087134
1157.3384,0.088461
1159.2021,0.090083
1161.0657,0.092112
1162.9294,0.094732
1164.7931,0.098184
1166.6567,0.102477
1168.5204,0.107575
1170.3841,0.112933
1172.2477,0.116736
1174.1114,0.116488
1175.9751,0.111409
1177.8388,0.104056
1179.7024,0.097852
1181.5661,0.094227
1183.4298,0.092557
1185.2934,0.091982
1187.1571,0.091918
1189.0208,0.091928
1190.8844,0.091841
1192.7481,0.091708
1194.6118,0.091720
1196.4754,0.091878
1198.3391,0.092162
1200.2028,0.092498
1202.0665,0.092825
1203.9301,0.093285
1205.7938,0.093788
1207.6575,0.094259
1209.5211,0.094794
1211.3848,0.095326
1213.2485,0.095830
1215.1121,0.096399
1216.9758,0.096967
1218.8395,0.097493
1220.7031,0.098049
1222.5668,0.098619
1224.4305,0.099255
1226.2941,0.099884
1228.1578,0.100427
1230.0215,0.101033
1231.8852,0.101652
1233.7488,0.102267
1235.6125,0.102951
1237.4762,0.103671
1239.3398,0.104410
1241.2035,0.105096
1243.0672,0.105823
1244.9308,0.106661
1246.7945,0.107523
1248.6582,0.108479
1250.5218,0.109540
1252.3855,0.110581
1254.2492,0.111637
1256.1129,0.112696
1257.9765,0.113838
1259.8402,0.115395
1261.7039,0.117072
1263.5675,0.118492
1265.4312,0.119754
1267.2949,0.120540
1269.1585,0.120631
1271.0222,0.120486
1272.8859,0.120506
1274.7495,0.120837
1276.6132,0.121632
1278.4769,0.122891
1280.3405,0.124597
1282.2042,0.126659
1284.0679,0.128974
1285.9316,0.131695
1287.7952,0.135066
1289.6589,0.138906
1291.5226,0.143190
1293.3862,0.148357
1295.2499,0.154523
1297.1136,0.161880
1298.9772,0.170741
1300.8409,0.181430
1302.7046,0.192873
1304.5682,0.201124
1306.4319,0.200159
1308.2956,0.184155
1310.1592,0.155164
1312.0229,0.125831
1313.8866,0.106712
1315.7503,0.099394
1317.6139,0.099041
1319.4776,0.101576
1321.3413,0.104811
1323.2049,0.108147
1325.0686,0.111747
1326.9323,0.115332
1328.7959,0.118749
1330.6596,0.121986
1332.5233,0.124635
1334.3869,0.126244
1336.2506,0.127479
1338.1143,0.129723
1339.9780,0.132658
1341.8416,0.133666
1343.7053,0.133657
1345.5690,0.134465
1347.4326,0.135831
1349.2963,0.137657
1351.1600,0.139773
1353.0236,0.142309
1354.8873,0.145501
1356.7510,0.148579
1358.6146,0.151221
1360.4783,0.155104
1362.3420,0.162091
1364.2056,0.168342
1366.0693,0.171279
1367.9330,0.175824
1369.7967,0.181313
1371.6603,0.185654
1373.5240,0.192402
1375.3877,0.200151
1377.2513,0.204880
1379.1150,0.211174
1380.9787,0.219419
1382.8423,0.227802
1384.7060,0.236961
1386.5697,0.249212
1388.4333,0.262933
1390.2970,0.269620
1392.1607,0.272475
1394.0244,0.272920
1395.8880,0.265095
1397.7517,0.251640
1399.6154,0.236434
1401.4790,0.221624
1403.3427,0.208403
1405.2064,0.188824
1407.0700,0.163254
1408.9337,0.139156
1410.7974,0.117493
1412.6610,0.102250
1414.5247,0.095318
1416.3884,0.095054
1418.2520,0.101855
1420.1157,0.114150
1421.9794,0.119922
1423.8431,0.117596
1425.7067,0.106111
1427.5704,0.093505
1429.4341,0.085688
1431.2977,0.082391
1433.1614,0.082140
1435.0251,0.084359
1436.8887,0.089946
1438.7524,0.093294
1440.6161,0.094492
1442.4797,0.096981
1444.3434,0.099163
1446.2071,0.100942
1448.0707,0.101985
1449.9344,0.099717
1451.7981,0.095240
1453.6618,0.090705
1455.5254,0.089188
1457.3891,0.094031
1459.2528,0.096243
1461.1164,0.094480
1462.9801,0.094534
1464.8438,0.095915
1466.7074,0.094912
1468.5711,0.091924
1470.4348,0.090461
1472.2984,0.091793
1474.1621,0.093325
1476.0258,0.092811
1477.8895,0.092369
1479.7531,0.092029
1481.6168,0.092570
1483.4805,0.092547
1485.3441,0.092258
1487.2078,0.093410
1489.0715,0.096758
1490.9351,0.099379
1492.7988,0.098209
1494.6625,0.097879
1496.5261,0.101413
1498.3898,0.104850
1500.2535,0.104870
1502.1171,0.103525
1503.9808,0.102776
1505.8445,0.106875
1507.7082,0.118455
1509.5718,0.116901
1511.4355,0.115296
1513.2992,0.115728
1515.1628,0.117069
1517.0265,0.119991
1518.8902,0.121618
1520.7538,0.124344
1522.6175,0.129115
1524.4812,0.128925
1526.3448,0.130815
1528.2085,0.132485
1530.0722,0.132178
1531.9359,0.133922
1533.7995,0.138552
1535.6632,0.138578
1537.5269,0.137516
1539.3905,0.143456
1541.2542,0.154658
1543.1179,0.155559
1544.9815,0.157232
1546.8452,0.158444
1548.7089,0.160150
1550.5725,0.163978
1552.4362,0.166599
1554.2999,0.168722
1556.1635,0.171704
1558.0272,0.180599
1559.8909,0.200884
1561.7546,0.194056
1563.6182,0.191632
1565.4819,0.194961
1567.3456,0.198890
1569.2092,0.205438
1571.0729,0.211875
1572.9366,0.212271
1574.8002,0.217316
1576.6639,0.228917
1578.5276,0.233101
1580.3912,0.234009
1582.2549,0.238089
1584.1186,0.241652
1585.9822,0.244395
1587.8459,0.246215
1589.7096,0.247298
1591.5733,0.247242
1593.4369,0.246356
1595.3006,0.244668
1597.1643,0.242040
1599.0279,0.238606
1600.8916,0.235324
1602.7553,0.232050
1604.6189,0.228817
1606.4826,0.225956
1608.3463,0.223570
1610.2099,0.220495
1612.0736,0.215982
1613.9373,0.210835
1615.8010,0.205238
1617.6646,0.194577
1619.5283,0.182998
1621.3920,0.175225
1623.2556,0.165504
1625.1193,0.153538
1626.9830,0.143044
1628.8466,0.130304
1630.7103,0.117422
1632.5740,0.107504
1634.4376,0.098014
1636.3013,0.086645
1638.1650,0.079738
1640.0286,0.078484
1641.8923,0.077603
1643.7560,0.077866
1645.6197,0.080162
1647.4833,0.084558
1649.3470,0.086499
1651.2107,0.089054
1653.0743,0.097135
1654.9380,0.103450
1656.8017,0.101688
1658.6653,0.102361
1660.5290,0.103185
1662.3927,0.103238
1664.2563,0.101408
1666.1200,0.099048
1667.9837,0.097422
1669.8474,0.095970
1671.7110,0.094330
1673.5747,0.094823
1675.4384,0.097969
1677.3020,0.101618
1679.1657,0.104392
1681.0294,0.109352
1682.8930,0.115583
1684.7567,0.124850
1686.6204,0.126510
1688.4840,0.124888
1690.3477,0.123283
1692.2114,0.119805
1694.0750,0.116068
1695.9387,0.112134
1697.8024,0.106331
1699.6661,0.101971
1701.5297,0.092220
1703.3934,0.083467
1705.2571,0.073963
1707.1207,0.061310
1708.9844,0.052846
1710.8481,0.046844
1712.7117,0.041936
1714.5754,0.038598
1716.4391,0.035583
1718.3027,0.033948
1720.1664,0.032682
1722.0301,0.031673
1723.8937,0.029673
1725.7574,0.027043
1727.6211,0.024587
1729.4848,0.022552
1731.3484,0.020661
1733.2121,0.019399
1735.0758,0.017479
1736.9394,0.016939
1738.8031,0.017001
1740.6668,0.016528
1742.5304,0.015747
1744.3941,0.015418
1746.2578,0.014892
1748.1214,0.014375
1749.9851,0.013603
1751.8488,0.013388
1753.7125,0.013378
1755.5761,0.013598
1757.4398,0.013394
1759.3035,0.013252
1761.1671,0.013161
1763.0308,0.013173
1764.8945,0.013116
1766.7581,0.013073
1768.6218,0.012767
1770.4855,0.012700
1772.3491,0.012488
1774.2128,0.012249
1776.0765,0.012282
1777.9401,0.012708
1779.8038,0.012731
1781.6675,0.012722
1783.5312,0.012898
1785.3948,0.013238
1787.2585,0.013081
1789.1222,0.012926
1790.9858,0.012749
1792.8495,0.012785
1794.7132,0.012696
1796.5768,0.012880
1798.4405,0.013084
1800.3042,0.013325
1802.1678,0.013205
1804.0315,0.013341
1805.8952,0.013552
1807.7589,0.013797
1809.6225,0.013704
1811.4862,0.013537
1813.3499,0.013461
1815.2135,0.013715
1817.0772,0.013622
1818.9409,0.013563
1820.8045,0.013584
1822.6682,0.013678
1824.5319,0.013674
1826.3955,0.013685
1828.2592,0.013448
1830.1229,0.013435
1831.9865,0.013171
1833.8502,0.013433
1835.7139,0.013601
1837.5776,0.013510
1839.4412,0.013307
1841.3049,0.013641
1843.1686,0.013666
1845.0322,0.013469
1846.8959,0.013252
1848.7596,0.013298
1850.6232,0.013263
1852.4869,0.013442
1854.3506,0.013622
1856.2142,0.013985
1858.0779,0.014152
1859.9416,0.014095
1861.8052,0.013828
1863.6689,0.013741
1865.5326,0.013586
1867.3963,0.013665
1869.2599,0.013452
1871.1236,0.013384
1872.9873,0.013680
1874.8509,0.014192
1876.7146,0.014134
1878.5783,0.014290
1880.4419,0.014342
1882.3056,0.014376
1884.1693,0.014235
1886.0329,0.014409
1887.8966,0.014254
1889.7603,0.014352
1891.6240,0.014357
1893.4876,0.014371
1895.3513,0.014412
1897.2150,0.014868
1899.0786,0.014831
1900.9423,0.014784
1902.8060,0.014806
1904.6696,0.014854
1906.5333,0.014629
1908.3970,0.014840
1910.2606,0.014809
1912.1243,0.015181
1913.9880,0.015623
1915.8516,0.015495
1917.7153,0.014751
1919.5790,0.014476
1921.4427,0.014418
1923.3063,0.014483
1925.1700,0.013812
1927.0337,0.013992
1928.8973,0.013997
1930.7610,0.014390
1932.6247,0.014506
1934.4883,0.014919
1936.3520,0.014372
1938.2157,0.013571
1940.0793,0.013193
1941.9430,0.013076
1943.8067,0.012206
1945.6704,0.011965
1947.5340,0.012031
1949.3977,0.012094
1951.2614,0.011553
1953.1250,0.011463
1954.9887,0.010760
1956.8524,0.010493
1958.7160,0.010246
1960.5797,0.009682
1962.4434,0.008237
1964.3070,0.007613
1966.1707,0.005987
1968.0344,0.004876
1969.8980,0.004157
1971.7617,0.005109
1973.6254,0.004959
1975.4891,0.006589
1977.3527,0.007414
1979.2164,0.007855
1981.0801,0.008016
1982.9437,0.008467
1984.8074,0.008423
1986.6711,0.009613
1988.5347,0.010115
1990.3984,0.010376
1992.2621,0.010083
1994.1257,0.009335
1995.9894,0.009386
1997.8531,0.010246
1999.7167,0.010654
2001.5804,0.011068
2003.4441,0.009572
2005.3078,0.008690
2007.1714,0.008392
2009.0351,0.008690
2010.8988,0.007879
2012.7624,0.008510
2014.6261,0.008200
2016.4898,0.007238
2018.3534,0.006096
2020.2171,0.006148
2022.0808,0.006069
2023.9444,0.007389
2025.8081,0.007498
2027.6718,0.007386
2029.5355,0.008131
2031.3991,0.007576
2033.2628,0.006711
2035.1265,0.007964
2036.9901,0.008464
2038.8538,0.009009
2040.7175,0.009368
2042.5811,0.010072
2044.4448,0.010358
2046.3085,0.011009
2048.1721,0.011422
2050.0358,0.012482
2051.8995,0.013006
2053.7631,0.013213
2055.6268,0.012918
2057.4905,0.013941
2059.3542,0.014723
2061.2178,0.015027
2063.0815,0.015114
2064.9452,0.015118
2066.8088,0.014663
2068.6725,0.015263
2070.5362,0.015142
2072.3998,0.015154
2074.2635,0.015568
2076.1272,0.016079
2077.9908,0.016466
2079.8545,0.017126
2081.7182,0.017328
2083.5819,0.017576
2085.4455,0.017558
2087.3092,0.017330
2089.1729,0.017397
2091.0365,0.017644
2092.9002,0.016960
2094.7639,0.016951
2096.6275,0.017359
2098.4912,0.017122
2100.3549,0.016504
2102.2185,0.016979
2104.0822,0.017776
2105.9459,0.017903
2107.8095,0.017904
2109.6732,0.018449
2111.5369,0.018550
2113.4006,0.018851
2115.2642,0.018778
2117.1279,0.018686
2118.9916,0.018534
2120.8552,0.018740
2122.7189,0.018710
2124.5826,0.018478
2126.4462,0.018085
2128.3099,0.017729
2130.1736,0.017163
2132.0372,0.017043
2133.9009,0.016905
2135.7646,0.016347
2137.6282,0.015240
2139.4919,0.015952
2141.3556,0.016061
2143.2193,0.014878
2145.0829,0.014031
2146.9466,0.013399
2148.8103,0.012586
2150.6739,0.013529
2152.5376,0.012677
2154.4013,0.009592
2156.2649,0.006028
2158.1286,0.005090
2159.9923,0.007071
2161.8559,0.009593
2163.7196,0.009522
2165.5833,0.010737
2167.4470,0.010582
2169.3106,0.011007
2171.1743,0.010824
2173.0380,0.011284
2174.9016,0.012479
2176.7653,0.013027
2178.6290,0.012647
2180.4926,0.012880
2182.3563,0.012743
2184.2200,0.013627
2186.0836,0.013143
2187.9473,0.013118
2189.8110,0.013242
2191.6746,0.012984
2193.5383,0.013519
2195.4020,0.014894
2197.2657,0.015360
2199.1293,0.016200
2200.9930,0.015873
2202.8567,0.015338
2204.7203,0.015491
2206.5840,0.016203
2208.4477,0.017534
2210.3113,0.018455
2212.1750,0.017195
2214.0387,0.017225
2215.9023,0.017783
2217.7660,0.018604
2219.6297,0.018815
2221.4934,0.019092
2223.3570,0.019124
2225.2207,0.019659
2227.0844,0.019226
2228.9480,0.019438
2230.8117,0.019864
2232.6754,0.020446
2234.5390,0.020597
2236.4027,0.021049
2238.2664,0.020861
2240.1300,0.020219
2241.9937,0.020412
2243.8574,0.021558
2245.7210,0.021981
2247.5847,0.022044
2249.4484,0.021993
2251.3121,0.022588
2253.1757,0.022664
2255.0394,0.022124
2256.9031,0.021819
2258.7667,0.022601
2260.6304,0.022855
2262.4941,0.023064
2264.3577,0.023630
2266.2214,0.024037
2268.0851,0.023911
2269.9487,0.024090
2271.8124,0.024838
2273.6761,0.025160
2275.5397,0.025328
2277.4034,0.026325
2279.2671,0.026861
2281.1308,0.026650
2282.9944,0.026940
2284.8581,0.027714
2286.7218,0.027579
2288.5854,0.027130
2290.4491,0.027339
2292.3128,0.027660
2294.1764,0.027843
2296.0401,0.027878
2297.9038,0.027541
2299.7674,0.027440
2301.6311,0.027854
2303.4948,0.028467
2305.3585,0.028781
2307.2221,0.028665
2309.0858,0.028464
2310.9495,0.028783
2312.8131,0.029108
2314.6768,0.028868
2316.5405,0.028230
2318.4041,0.028061
2320.2678,0.028217
2322.1315,0.028589
2323.9951,0.028973
2325.8588,0.028877
2327.7225,0.028102
2329.5861,0.027435
2331.4498,0.027290
2333.3135,0.027497
2335.1772,0.027524
2337.0408,0.027283
2338.9045,0.027473
2340.7682,0.027887
2342.6318,0.028164
2344.4955,0.028118
2346.3592,0.027995
2348.2228,0.027478
2350.0865,0.027098
2351.9502,0.027353
2353.8138,0.027516
2355.6775,0.027491
2357.5412,0.027552
2359.4049,0.027671
2361.2685,0.027554
2363.1322,0.027283
2364.9959,0.027035
2366.8595,0.027332
2368.7232,0.027793
2370.5869,0.027878
2372.4505,0.028208
2374.3142,0.028685
2376.1779,0.028931
2378.0415,0.028725
2379.9052,0.028469
2381.7689,0.028638
2383.6325,0.028926
2385.4962,0.028850
2387.3599,0.028694
2389.2236,0.028482
2391.0872,0.028514
2392.9509,0.028764
2394.8146,0.028925
2396.6782,0.028881
2398.5419,0.028690
2400.4056,0.028891
2402.2692,0.029047
2404.1329,0.029025
2405.9966,0.029062
2407.8602,0.029330
2409.7239,0.029496
2411.5876,0.029398
2413.4512,0.029275
2415.3149,0.029744
2417.1786,0.029955
2419.0423,0.030070
2420.9059,0.030102
2422.7696,0.030069
2424.6333,0.030008
2426.4969,0.030237
2428.3606,0.030285
2430.2243,0.030553
2432.0879,0.030750
2433.9516,0.030718
2435.8153,0.030625
2437.6789,0.030756
2439.5426,0.030839
2441.4063,0.030667
2443.2700,0.030221
2445.1336,0.030494
2446.9973,0.030673
2448.8610,0.030369
2450.7246,0.030449
2452.5883,0.030625
2454.4520,0.030530
2456.3156,0.030064
2458.1793,0.029983
2460.0430,0.030292
2461.9066,0.030224
2463.7703,0.029759
2465.6340,0.029455
2467.4976,0.029792
2469.3613,0.030370
2471.2250,0.030267
2473.0887,0.030067
2474.9523,0.029955
2476.8160,0.029931
2478.6797,0.030146
2480.5433,0.030349
2482.4070,0.030662
2484.2707,0.030634
2486.1343,0.030283
2487.9980,0.030407
2489.8617,0.031102
2491.7253,0.031616
2493.5890,0.031539
2495.4527,0.031007
2497.3164,0.031056
2499.1800,0.031017
2501.0437,0.031207
2502.9074,0.031626
2504.7710,0.031922
2506.6347,0.032198
2508.4984,0.031857
2510.3620,0.031760
2512.2257,0.032232
2514.0894,0.032346
2515.9530,0.032162
2517.8167,0.031987
2519.6804,0.031876
2521.5440,0.032045
2523.4077,0.032459
2525.2714,0.032742
2527.1351,0.033126
