Wavenumber,Intensity
650.4205,0.222515
652.2841,0.216818
654.1478,0.212801
656.0115,0.209113
657.8751,0.205779
659.7388,0.202256
661.6025,0.201810
663.4661,0.201175
665.3298,0.199887
667.1935,0.198287
669.0571,0.198111
670.9208,0.196523
672.7845,0.194866
674.6481,0.193113
676.5118,0.193627
678.3755,0.193076
680.2392,0.192905
682.1028,0.193176
683.9665,0.192107
685.8302,0.190578
687.6938,0.190210
689.5575,0.190771
691.4212,0.191857
693.2848,0.190951
695.1485,0.190421
697.0122,0.190188
698.8758,0.191672
700.7395,0.192299
702.6032,0.190915
704.4669,0.188186
706.3305,0.182930
708.1942,0.174841
710.0579,0.167247
711.9215,0.159955
713.7852,0.152277
715.6489,0.144655
717.5125,0.138186
719.3762,0.132696
721.2399,0.127706
723.1035,0.123155
724.9672,0.118673
726.8309,0.113958
728.6945,0.109889
730.5582,0.105502
732.4219,0.101499
734.2856,0.098440
736.1492,0.095612
738.0129,0.094033
739.8766,0.094704
741.7402,0.096644
743.6039,0.098510
745.4676,0.099530
747.3312,0.099638
749.1949,0.098729
751.0586,0.097826
752.9222,0.096929
754.7859,0.095479
756.6496,0.094081
758.5132,0.093339
760.3769,0.092591
762.2406,0.092442
764.1043,0.092185
765.9679,0.091277
767.8316,0.091087
769.6953,0.091136
771.5589,0.090958
773.4226,0.091400
775.2863,0.092501
777.1499,0.093246
779.0136,0.093781
780.8773,0.095120
782.7409,0.096247
784.6046,0.097308
786.4683,0.099202
788.3320,0.100821
790.1956,0.102268
792.0593,0.104375
793.9230,0.106536
795.7866,0.108462
797.6503,0.110067
799.5140,0.111571
801.3776,0.112669
803.2413,0.112970
805.1050,0.112637
806.9686,0.111290
808.8323,0.109069
810.6960,0.106743
812.5596,0.103724
814.4233,0.100331
816.2870,0.097213
818.1507,0.094148
820.0143,0.091324
821.8780,0.089308
823.7417,0.088332
825.6053,0.088846
827.4690,0.090452
829.3327,0.091098
831.1963,0.085796
833.0600,0.074141
834.9237,0.064102
836.7873,0.059292
838.6510,0.057402
840.5147,0.056802
842.3784,0.056485
844.2420,0.056144
846.1057,0.056233
847.9694,0.056251
849.8330,0.055756
851.6967,0.055205
853.5604,0.054910
855.4240,0.054788
857.2877,0.054920
859.1514,0.055020
861.0150,0.054831
862.8787,0.054488
864.7424,0.054433
866.6060,0.054721
868.4697,0.055035
870.3334,0.055018
872.1971,0.055140
874.0607,0.055235
875.9244,0.055211
877.7881,0.055545
879.6517,0.056011
881.5154,0.056214
883.3791,0.056233
885.2427,0.056533
887.1064,0.056983
888.9701,0.057496
890.8337,0.058161
892.6974,0.058898
894.5611,0.059893
896.4247,0.060996
898.2884,0.062291
900.1521,0.063814
902.0158,0.065924
903.8794,0.068921
905.7431,0.072766
907.6068,0.077449
909.4704,0.082888
911.3341,0.089311
913.1978,0.096601
915.0614,0.100034
916.9251,0.092153
918.7888,0.076610
920.6524,0.064302
922.5161,0.058674
924.3798,0.056989
926.2435,0.056649
928.1071,0.056963
929.9708,0.057570
931.8345,0.058210
933.6981,0.058984
935.5618,0.059789
937.4255,0.060493
939.2891,0.061184
941.1528,0.061921
943.0165,0.062719
944.8801,0.063515
946.7438,0.064249
948.6075,0.065112
950.4711,0.066113
952.3348,0.067076
954.1985,0.068192
956.0622,0.069465
957.9258,0.070637
959.7895,0.071807
961.6532,0.073111
963.5168,0.074698
965.3805,0.076627
967.2442,0.078939
969.1078,0.081719
970.9715,0.084529
972.8352,0.087709
974.6988,0.093127
976.5625,0.102736
978.4262,0.118911
980.2899,0.141362
982.1535,0.150474
984.0172,0.125298
985.8809,0.091463
987.7445,0.075798
989.6082,0.073200
991.4719,0.073821
993.3355,0.075186
995.1992,0.076691
997.0629,0.078179
998.9265,0.079732
1000.7902,0.081236
1002.6539,0.082740
1004.5175,0.084430
1006.3812,0.086276
1008.2449,0.088037
1010.1086,0.089593
1011.9722,0.091022
1013.8359,0.092306
1015.6996,0.093234
1017.5632,0.093797
1019.4269,0.094273
1021.2906,0.094742
1023.1542,0.095049
1025.0179,0.095428
1026.8816,0.096090
1028.7452,0.096941
1030.6089,0.098094
1032.4726,0.099465
1034.3362,0.100985
1036.1999,0.102864
1038.0636,0.105033
1039.9273,0.107577
1041.7909,0.110874
1043.6546,0.114684
1045.5183,0.118517
1047.3819,0.121487
1049.2456,0.121312
1051.1093,0.115887
1052.9729,0.106556
1054.8366,0.097465
1056.7003,0.091590
1058.5639,0.089026
1060.4276,0.088370
1062.2913,0.088628
1064.1550,0.089331
1066.0186,0.090342
1067.8823,0.091797
1069.7460,0.093525
1071.6096,0.095389
1073.4733,0.097413
1075.3370,0.099515
1077.2006,0.101691
1079.0643,0.104001
1080.9280,0.106543
1082.7916,0.109243
1084.6553,0.112093
1086.5190,0.115237
1088.3826,0.118697
1090.2463,0.122627
1092.1100,0.127168
1093.9737,0.132253
1095.8373,0.137851
1097.7010,0.144080
1099.5647,0.150764
1101.4283,0.157274
1103.2920,0.162980
1105.1557,0.166742
1107.0193,0.166830
1108.8830,0.162062
1110.7467,0.152226
1112.6103,0.139152
1114.4740,0.125770
1116.3377,0.113783
1118.2014,0.103920
1120.0650,0.096485
1121.9287,0.091366
1123.7924,0.088013
1125.6560,0.085487
1127.5197,0.083136
1129.3834,0.080843
1131.2470,0.078613
1133.1107,0.076531
1134.9744,0.074903
1136.8380,0.073762
1138.7017,0.073011
1140.5654,0.072641
1142.4290,0.072537
1144.2927,0.072591
1146.1564,0.072712
1148.0201,0.072902
1149.8837,0.073238
1151.7474,0.073745
1153.6111,0.074410
1155.4747,0.075280
1157.3384,0.076307
1159.2021,0.077463
1161.0657,0.078925
1162.9294,0.080888
1164.7931,0.083314
1166.6567,0.086346
1168.5204,0.090090
1170.3841,0.093967
1172.2477,0.096695
1174.1114,0.096420
1175.9751,0.092527
1177.8388,0.087042
1179.7024,0.082471
1181.5661,0.079706
1183.4298,0.078445
1185.2934,0.078112
1187.1571,0.078175
1189.0208,0.078300
1190.8844,0.078282
1192.7481,0.078132
1194.6118,0.078072
1196.4754,0.078188
1198.3391,0.078426
1200.2028,0.078750
1202.0665,0.079068
1203.9301,0.079307
1205.7938,0.079542
1207.6575,0.079835
1209.5211,0.080227
1211.3848,0.080676
1213.2485,0.081096
1215.1121,0.081599
1216.9758,0.082244
1218.8395,0.082884
1220.7031,0.083479
1222.5668,0.084074
1224.4305,0.084647
1226.2941,0.085156
1228.1578,0.085546
1230.0215,0.086025
1231.8852,0.086649
1233.7488,0.087122
1235.6125,0.087525
1237.4762,0.088039
1239.3398,0.088599
1241.2035,0.089156
1243.0672,0.089718
1244.9308,0.090181
1246.7945,0.090606
1248.6582,0.091218
1250.5218,0.091857
1252.3855,0.092415
1254.2492,0.093090
1256.1129,0.093855
1257.9765,0.094612
1259.8402,0.095554
1261.7039,0.096615
1263.5675,0.097577
1265.4312,0.098507
1267.2949,0.099133
1269.1585,0.099212
1271.0222,0.099013
1272.8859,0.098902
1274.7495,0.099172
1276.6132,0.099876
1278.4769,0.100925
1280.3405,0.102245
1282.2042,0.103784
1284.0679,0.105617
1285.9316,0.107755
1287.7952,0.110227
1289.6589,0.113037
1291.5226,0.116344
1293.3862,0.120299
1295.2499,0.124941
1297.1136,0.130573
1298.9772,0.137253
1300.8409,0.145110
1302.7046,0.153455
1304.5682,0.159164
1306.4319,0.157835
1308.2956,0.145853
1310.1592,0.124623
1312.0229,0.102904
1313.8866,0.088554
1315.7503,0.082838
1317.6139,0.082403
1319.4776,0.084243
1321.3413,0.086658
1323.2049,0.089317
1325.0686,0.092247
1326.9323,0.095183
1328.7959,0.098045
1330.6596,0.100746
1332.5233,0.102985
1334.3869,0.104361
1336.2506,0.105360
1338.1143,0.107072
1339.9780,0.109198
1341.8416,0.109833
1343.7053,0.109693
1345.5690,0.110208
1347.4326,0.111214
1349.2963,0.112657
1351.1600,0.114382
1353.0236,0.116372
1354.8873,0.118881
1356.7510,0.121490
1358.6146,0.123822
1360.4783,0.126896
1362.3420,0.131948
1364.2056,0.136566
1366.0693,0.139122
1367.9330,0.142782
1369.7967,0.147058
1371.6603,0.150639
1373.5240,0.155877
1375.3877,0.161697
1377.2513,0.165363
1379.1150,0.170114
1380.9787,0.176351
1382.8423,0.182701
1384.7060,0.189457
1386.5697,0.197962
1388.4333,0.207173
1390.2970,0.211817
1392.1607,0.213739
1394.0244,0.213791
1395.8880,0.207984
1397.7517,0.198416
1399.6154,0.187824
1401.4790,0.177397
1403.3427,0.168179
1405.2064,0.154926
1407.0700,0.136509
1408.9337,0.118105
1410.7974,0.101607
1412.6610,0.089808
1414.5247,0.083907
1416.3884,0.083255
1418.2520,0.088382
1420.1157,0.097719
1421.9794,0.102341
1423.8431,0.100859
1425.7067,0.092578
1427.5704,0.083030
1429.4341,0.077295
1431.2977,0.075095
1433.1614,0.074834
1435.0251,0.076309
1436.8887,0.080416
1438.7524,0.082932
1440.6161,0.083513
1442.4797,0.085149
1444.3434,0.086724
1446.2071,0.087871
1448.0707,0.088510
1449.9344,0.086883
1451.7981,0.083559
1453.6618,0.080359
1455.5254,0.079748
1457.3891,0.083780
1459.2528,0.085454
1461.1164,0.084112
1462.9801,0.084137
1464.8438,0.085156
1466.7074,0.084402
1468.5711,0.082018
1470.4348,0.080829
1472.2984,0.082153
1474.1621,0.083503
1476.0258,0.082851
1477.8895,0.082488
1479.7531,0.082318
1481.6168,0.082991
1483.4805,0.083422
1485.3441,0.083668
1487.2078,0.085230
1489.0715,0.088403
1490.9351,0.090905
1492.7988,0.090533
1494.6625,0.090625
1496.5261,0.093811
1498.3898,0.096842
1500.2535,0.097376
1502.1171,0.096855
1503.9808,0.096744
1505.8445,0.100572
1507.7082,0.109465
1509.5718,0.108782
1511.4355,0.107849
1513.2992,0.108644
1515.1628,0.109914
1517.0265,0.112063
1518.8902,0.113526
1520.7538,0.115751
1522.6175,0.119260
1524.4812,0.119176
1526.3448,0.120225
1528.2085,0.121381
1530.0722,0.121386
1531.9359,0.122577
1533.7995,0.125692
1535.6632,0.126008
1537.5269,0.125413
1539.3905,0.130119
1541.2542,0.137751
1543.1179,0.138244
1544.9815,0.139256
1546.8452,0.140095
1548.7089,0.141222
1550.5725,0.144009
1552.4362,0.146048
1554.2999,0.147621
1556.1635,0.149763
1558.0272,0.155223
1559.8909,0.167368
1561.7546,0.164165
1563.6182,0.162632
1565.4819,0.164951
1567.3456,0.167658
1569.2092,0.171698
1571.0729,0.175753
1572.9366,0.176246
1574.8002,0.179526
1576.6639,0.186652
1578.5276,0.189212
1580.3912,0.189623
1582.2549,0.192022
1584.1186,0.193938
1585.9822,0.195207
1587.8459,0.195867
1589.7096,0.195880
1591.5733,0.194962
1593.4369,0.193473
1595.3006,0.191448
1597.1643,0.188728
1599.0279,0.185681
1600.8916,0.182804
1602.7553,0.180044
1604.6189,0.177263
1606.4826,0.174851
1608.3463,0.172932
1610.2099,0.170616
1612.0736,0.167323
1613.9373,0.163725
1615.8010,0.160132
1617.6646,0.153325
1619.5283,0.145294
1621.3920,0.140095
1623.2556,0.134064
1625.1193,0.126021
1626.9830,0.118293
1628.8466,0.109473
1630.7103,0.100266
1632.5740,0.092906
1634.4376,0.086167
1636.3013,0.078520
1638.1650,0.072958
1640.0286,0.070983
1641.8923,0.069817
1643.7560,0.069924
1645.6197,0.071422
1647.4833,0.074555
1649.3470,0.076159
1651.2107,0.077895
1653.0743,0.083234
1654.9380,0.087336
1656.8017,0.086266
1658.6653,0.086638
1660.5290,0.087019
1662.3927,0.086761
1664.2563,0.085076
1666.1200,0.083071
1667.9837,0.081603
1669.8474,0.080100
1671.7110,0.078639
1673.5747,0.078894
1675.4384,0.080951
1677.3020,0.083456
1679.1657,0.085454
1681.0294,0.089031
1682.8930,0.093114
1684.7567,0.097925
1686.6204,0.098306
1688.4840,0.096778
1690.3477,0.094521
1692.2114,0.091020
1694.0750,0.087627
1695.9387,0.084091
1697.8024,0.079488
1699.6661,0.076166
1701.5297,0.068840
1703.3934,0.062183
1705.2571,0.055396
1707.1207,0.046465
1708.9844,0.039973
1710.8481,0.035332
1712.7117,0.031501
1714.5754,0.029156
1716.4391,0.027339
1718.3027,0.025832
1720.1664,0.024315
1722.0301,0.023487
1723.8937,0.022088
1725.7574,0.020182
1727.6211,0.018311
1729.4848,0.016690
1731.3484,0.015238
1733.2121,0.014453
1735.0758,0.013280
1736.9394,0.012699
1738.8031,0.012438
1740.6668,0.012089
1742.5304,0.011621
1744.3941,0.011593
1746.2578,0.011387
1748.1214,0.010941
1749.9851,0.010319
1751.8488,0.010264
1753.7125,0.010103
1755.5761,0.009946
1757.4398,0.009783
1759.3035,0.009754
1761.1671,0.009703
1763.0308,0.009823
1764.8945,0.009626
1766.7581,0.009520
1768.6218,0.009498
1770.4855,0.009530
1772.3491,0.009404
1774.2128,0.009317
1776.0765,0.009160
1777.9401,0.009274
1779.8038,0.009356
1781.6675,0.009477
1783.5312,0.009486
1785.3948,0.009567
1787.2585,0.009438
1789.1222,0.009388
1790.9858,0.009407
1792.8495,0.009659
1794.7132,0.009616
1796.5768,0.009624
1798.4405,0.009673
1800.3042,0.009907
1802.1678,0.009758
1804.0315,0.009685
1805.8952,0.009718
1807.7589,0.009965
1809.6225,0.010108
1811.4862,0.010293
1813.3499,0.010053
1815.2135,0.009721
1817.0772,0.009489
1818.9409,0.009689
1820.8045,0.009969
1822.6682,0.010137
1824.5319,0.009840
1826.3955,0.009799
1828.2592,0.009869
1830.1229,0.009897
1831.9865,0.009530
1833.8502,0.009509
1835.7139,0.009585
1837.5776,0.009486
1839.4412,0.009528
1841.3049,0.009691
1843.1686,0.009755
1845.0322,0.010041
1846.8959,0.009676
1848.7596,0.009532
1850.6232,0.009826
1852.4869,0.010036
1854.3506,0.009962
1856.2142,0.010088
1858.0779,0.010048
1859.9416,0.010027
1861.8052,0.009981
1863.6689,0.010218
1865.5326,0.010087
1867.3963,0.010043
1869.2599,0.009715
1871.1236,0.009675
1872.9873,0.010154
1874.8509,0.010559
1876.7146,0.010326
1878.5783,0.010133
1880.4419,0.010072
1882.3056,0.010140
1884.1693,0.009958
1886.0329,0.010074
1887.8966,0.010178
1889.7603,0.010315
1891.6240,0.010024
1893.4876,0.009757
1895.3513,0.009754
1897.2150,0.010208
1899.0786,0.010270
1900.9423,0.010454
1902.8060,0.010467
1904.6696,0.010208
1906.5333,0.010024
1908.3970,0.010057
1910.2606,0.009931
1912.1243,0.010249
1913.9880,0.010161
1915.8516,0.010041
1917.7153,0.009975
1919.5790,0.009943
1921.4427,0.009579
1923.3063,0.009678
1925.1700,0.009868
1927.0337,0.010429
1928.8973,0.010088
1930.7610,0.009515
1932.6247,0.009720
1934.4883,0.010172
1936.3520,0.009244
1938.2157,0.009047
1940.0793,0.009443
1941.9430,0.009521
1943.8067,0.009160
1945.6704,0.008895
1947.5340,0.008849
1949.3977,0.009355
1951.2614,0.008536
1953.1250,0.008944
1954.9887,0.008790
1956.8524,0.007212
1958.7160,0.006401
1960.5797,0.006729
1962.4434,0.006760
1964.3070,0.006332
1966.1707,0.004342
1968.0344,0.004357
1969.8980,0.005047
1971.7617,0.004823
1973.6254,0.003941
1975.4891,0.003658
1977.3527,0.004036
1979.2164,0.005194
1981.0801,0.004925
1982.9437,0.006314
1984.8074,0.007663
1986.6711,0.007344
1988.5347,0.006564
1990.3984,0.008104
1992.2621,0.008608
1994.1257,0.007034
1995.9894,0.005799
1997.8531,0.007323
1999.7167,0.007866
2001.5804,0.007658
2003.4441,0.006724
2005.3078,0.006316
2007.1714,0.005725
2009.0351,0.005022
2010.8988,0.005270
2012.7624,0.005837
2014.6261,0.005498
2016.4898,0.006455
2018.3534,0.004690
2020.2171,0.003578
2022.0808,0.004374
2023.9444,0.004814
2025.8081,0.004581
2027.6718,0.005675
2029.5355,0.004661
2031.3991,0.004802
2033.2628,0.005336
2035.1265,0.005975
2036.9901,0.006636
2038.8538,0.006729
2040.7175,0.005987
2042.5811,0.006862
2044.4448,0.007893
2046.3085,0.008551
2048.1721,0.008621
2050.0358,0.009174
2051.8995,0.009009
2053.7631,0.009532
2055.6268,0.009955
2057.4905,0.010345
2059.3542,0.010773
2061.2178,0.011033
2063.0815,0.010756
2064.9452,0.011342
2066.8088,0.010939
2068.6725,0.011033
2070.5362,0.012083
2072.3998,0.012707
2074.2635,0.012545
2076.1272,0.012374
2077.9908,0.012381
2079.8545,0.013170
2081.7182,0.013763
2083.5819,0.013574
2085.4455,0.013231
2087.3092,0.013532
2089.1729,0.013483
2091.0365,0.013656
2092.9002,0.013686
2094.7639,0.013414
2096.6275,0.013045
2098.4912,0.013241
2100.3549,0.013715
2102.2185,0.014512
2104.0822,0.014425
2105.9459,0.014200
2107.8095,0.013844
2109.6732,0.014275
2111.5369,0.014178
2113.4006,0.013870
2115.2642,0.014069
2117.1279,0.014416
2118.9916,0.014291
2120.8552,0.014351
2122.7189,0.014003
2124.5826,0.013964
2126.4462,0.014039
2128.3099,0.013381
2130.1736,0.012776
2132.0372,0.012532
2133.9009,0.012139
2135.7646,0.012862
2137.6282,0.012954
2139.4919,0.012134
2141.3556,0.011187
2143.2193,0.010945
2145.0829,0.009883
2146.9466,0.009141
2148.8103,0.008926
2150.6739,0.008938
2152.5376,0.007881
2154.4013,0.006794
2156.2649,0.005333
2158.1286,0.004496
2159.9923,0.004487
2161.8559,0.005923
2163.7196,0.007113
2165.5833,0.009403
2167.4470,0.009135
2169.3106,0.009032
2171.1743,0.008983
2173.0380,0.009200
2174.9016,0.009518
2176.7653,0.009500
2178.6290,0.008632
2180.4926,0.009764
2182.3563,0.010576
2184.2200,0.010476
2186.0836,0.010037
2187.9473,0.010810
2189.8110,0.010991
2191.6746,0.011588
2193.5383,0.012789
2195.4020,0.012316
2197.2657,0.011261
2199.1293,0.011385
2200.9930,0.011756
2202.8567,0.012815
2204.7203,0.013148
2206.5840,0.013455
2208.4477,0.014143
2210.3113,0.014649
2212.1750,0.014304
2214.0387,0.013756
2215.9023,0.013907
2217.7660,0.014078
2219.6297,0.014323
2221.4934,0.015171
2223.3570,0.015148
2225.2207,0.015157
2227.0844,0.014795
2228.9480,0.014687
2230.8117,0.015103
2232.6754,0.016447
2234.5390,0.016345
2236.4027,0.016053
2238.2664,0.016170
2240.1300,0.016427
2241.9937,0.016805
2243.8574,0.016915
2245.7210,0.016612
2247.5847,0.017397
2249.4484,0.017578
2251.3121,0.017492
2253.1757,0.016803
2255.0394,0.016753
2256.9031,0.017716
2258.7667,0.018275
2260.6304,0.018377
2262.4941,0.018230
2264.3577,0.018181
2266.2214,0.018575
2268.0851,0.018177
2269.9487,0.018739
2271.8124,0.019785
2273.6761,0.019967
2275.5397,0.020086
2277.4034,0.020747
2279.2671,0.020888
2281.1308,0.021114
2282.9944,0.021371
2284.8581,0.021752
2286.7218,0.021876
2288.5854,0.021694
2290.4491,0.021828
2292.3128,0.022271
2294.1764,0.022144
2296.0401,0.021748
2297.9038,0.021538
2299.7674,0.021410
2301.6311,0.021815
2303.4948,0.022452
2305.3585,0.022501
2307.2221,0.022339
2309.0858,0.022093
2310.9495,0.021962
2312.8131,0.022080
2314.6768,0.022151
2316.5405,0.022020
2318.4041,0.022105
2320.2678,0.022438
2322.1315,0.022578
2323.9951,0.022442
2325.8588,0.022081
2327.7225,0.021488
2329.5861,0.021123
2331.4498,0.020720
2333.3135,0.020489
2335.1772,0.020563
2337.0408,0.020665
2338.9045,0.020770
2340.7682,0.021077
2342.6318,0.021431
2344.4955,0.021420
2346.3592,0.020991
2348.2228,0.020748
2350.0865,0.020728
2351.9502,0.020466
2353.8138,0.020430
2355.6775,0.020745
2357.5412,0.020709
2359.4049,0.020336
2361.2685,0.020537
2363.1322,0.020796
2364.9959,0.020446
2366.8595,0.020513
2368.7232,0.020943
2370.5869,0.021582
2372.4505,0.021834
2374.3142,0.021983
2376.1779,0.022162
2378.0415,0.022122
2379.9052,0.021972
2381.7689,0.021932
2383.6325,0.021946
2385.4962,0.022036
2387.3599,0.022036
2389.2236,0.022088
2391.0872,0.022266
2392.9509,0.022293
2394.8146,0.022129
2396.6782,0.022107
2398.5419,0.022150
2400.4056,0.022387
2402.2692,0.022456
2404.1329,0.022257
2405.9966,0.022309
2407.8602,0.022528
2409.7239,0.022550
2411.5876,0.022780
2413.4512,0.022884
2415.3149,0.023033
2417.1786,0.023149
2419.0423,0.023198
2420.9059,0.023194
2422.7696,0.023373
2424.6333,0.023370
2426.4969,0.023143
2428.3606,0.023095
2430.2243,0.023295
2432.0879,0.023551
2433.9516,0.023627
2435.8153,0.023633
2437.6789,0.023640
2439.5426,0.023816
2441.4063,0.023762
2443.2700,0.023410
2445.1336,0.023355
2446.9973,0.023647
2448.8610,0.023743
2450.7246,0.023658
2452.5883,0.023524
2454.4520,0.023569
2456.3156,0.023665
2458.1793,0.023812
2460.0430,0.023664
2461.9066,0.023108
2463.7703,0.022946
2465.6340,0.022995
2467.4976,0.023221
2469.3613,0.023423
2471.2250,0.023328
2473.0887,0.023312
2474.9523,0.023571
2476.8160,0.023642
2478.6797,0.023623
2480.5433,0.023535
2482.4070,0.023655
2484.2707,0.024204
2486.1343,0.024637
2487.9980,0.024592
2489.8617,0.024523
2491.7253,0.024325
2493.5890,0.024455
2495.4527,0.024906
2497.3164,0.024842
2499.1800,0.024710
2501.0437,0.024694
2502.9074,0.024950
2504.7710,0.024848
2506.6347,0.024627
2508.4984,0.025084
2510.3620,0.025158
2512.2257,0.025298
2514.0894,0.025216
2515.9530,0.025264
2517.8167,0.025267
2519.6804,0.025263
2521.5440,0.025466
2523.4077,0.025814
2525.2714,0.026422
2527.1351,0.026390
