Wavenumber,Intensity
650.4205,0.215077
652.2841,0.210322
654.1478,0.204265
656.0115,0.198785
657.8751,0.198635
659.7388,0.197658
661.6025,0.194916
663.4661,0.192527
665.3298,0.191471
667.1935,0.192966
669.0571,0.196277
670.9208,0.193982
672.7845,0.190541
674.6481,0.187776
676.5118,0.186464
678.3755,0.185242
680.2392,0.184319
682.1028,0.184645
683.9665,0.184367
685.8302,0.182899
687.6938,0.182689
689.5575,0.182251
691.4212,0.181704
693.2848,0.181496
695.1485,0.180221
697.0122,0.179483
698.8758,0.182171
700.7395,0.183555
702.6032,0.181997
704.4669,0.178995
706.3305,0.173727
708.1942,0.166633
710.0579,0.159657
711.9215,0.152116
713.7852,0.144835
715.6489,0.138443
717.5125,0.132259
719.3762,0.126867
721.2399,0.122346
723.1035,0.117697
724.9672,0.113138
726.8309,0.109724
728.6945,0.106218
730.5582,0.101754
732.4219,0.098413
734.2856,0.095590
736.1492,0.092589
738.0129,0.090743
739.8766,0.090866
741.7402,0.092714
743.6039,0.095231
745.4676,0.096549
747.3312,0.096615
749.1949,0.095665
751.0586,0.094018
752.9222,0.092700
754.7859,0.091942
756.6496,0.091137
758.5132,0.090216
760.3769,0.089107
762.2406,0.088267
764.1043,0.087799
765.9679,0.087592
767.8316,0.087501
769.6953,0.087469
771.5589,0.087159
773.4226,0.087114
775.2863,0.087852
777.1499,0.089166
779.0136,0.090133
780.8773,0.090939
782.7409,0.091874
784.6046,0.092760
786.4683,0.093931
788.3320,0.095662
790.1956,0.097452
792.0593,0.099209
793.9230,0.101303
795.7866,0.103478
797.6503,0.105142
799.5140,0.106182
801.3776,0.106832
803.2413,0.107362
805.1050,0.107244
806.9686,0.106235
808.8323,0.104519
810.6960,0.102288
812.5596,0.099311
814.4233,0.095935
816.2870,0.092942
818.1507,0.090161
820.0143,0.087343
821.8780,0.085318
823.7417,0.084263
825.6053,0.084112
827.4690,0.085544
829.3327,0.086486
831.1963,0.081455
833.0600,0.070763
834.9237,0.061643
836.7873,0.057349
838.6510,0.055732
840.5147,0.055049
842.3784,0.054603
844.2420,0.054177
846.1057,0.053873
847.9694,0.053862
849.8330,0.053845
851.6967,0.053401
853.5604,0.053074
855.4240,0.053038
857.2877,0.053054
859.1514,0.052958
861.0150,0.052841
862.8787,0.052793
864.7424,0.052864
866.6060,0.053071
868.4697,0.053021
870.3334,0.052908
872.1971,0.052969
874.0607,0.053064
875.9244,0.053346
877.7881,0.053737
879.6517,0.054148
881.5154,0.054433
883.3791,0.054591
885.2427,0.054863
887.1064,0.055134
888.9701,0.055498
890.8337,0.056106
892.6974,0.056762
894.5611,0.057437
896.4247,0.058399
898.2884,0.059700
900.1521,0.061279
902.0158,0.063288
903.8794,0.065773
905.7431,0.068836
907.6068,0.072870
909.4704,0.078154
911.3341,0.084902
913.1978,0.092928
915.0614,0.097640
916.9251,0.091224
918.7888,0.076447
920.6524,0.064372
922.5161,0.058880
924.3798,0.057151
926.2435,0.056803
928.1071,0.057117
929.9708,0.057796
931.8345,0.058419
933.6981,0.058951
935.5618,0.059682
937.4255,0.060563
939.2891,0.061292
941.1528,0.061985
943.0165,0.062878
944.8801,0.063862
946.7438,0.064769
948.6075,0.065610
950.4711,0.066461
952.3348,0.067460
954.1985,0.068583
956.0622,0.069753
957.9258,0.070987
959.7895,0.072292
961.6532,0.073675
963.5168,0.075094
965.3805,0.076756
967.2442,0.078921
969.1078,0.081606
970.9715,0.084447
972.8352,0.087597
974.6988,0.092527
976.5625,0.100974
978.4262,0.115634
980.2899,0.137260
982.1535,0.147837
984.0172,0.125131
985.8809,0.092782
987.7445,0.077777
989.6082,0.075395
991.4719,0.076134
993.3355,0.077511
995.1992,0.079033
997.0629,0.080561
998.9265,0.082117
1000.7902,0.083707
1002.6539,0.085405
1004.5175,0.087258
1006.3812,0.089099
1008.2449,0.090750
1010.1086,0.092067
1011.9722,0.093175
1013.8359,0.094232
1015.6996,0.095140
1017.5632,0.095745
1019.4269,0.096189
1021.2906,0.096667
1023.1542,0.097095
1025.0179,0.097492
1026.8816,0.097941
1028.7452,0.098685
1030.6089,0.099804
1032.4726,0.100967
1034.3362,0.102411
1036.1999,0.104347
1038.0636,0.106488
1039.9273,0.108974
1041.7909,0.112161
1043.6546,0.115825
1045.5183,0.119532
1047.3819,0.122313
1049.2456,0.121956
1051.1093,0.116498
1052.9729,0.107276
1054.8366,0.098385
1056.7003,0.092489
1058.5639,0.089679
1060.4276,0.088950
1062.2913,0.089256
1064.1550,0.090179
1066.0186,0.091427
1067.8823,0.092802
1069.7460,0.094381
1071.6096,0.096199
1073.4733,0.098171
1075.3370,0.100171
1077.2006,0.102200
1079.0643,0.104302
1080.9280,0.106503
1082.7916,0.108895
1084.6553,0.111454
1086.5190,0.114200
1088.3826,0.117342
1090.2463,0.120890
1092.1100,0.124923
1093.9737,0.129627
1095.8373,0.134998
1097.7010,0.140865
1099.5647,0.147078
1101.4283,0.153410
1103.2920,0.159187
1105.1557,0.162994
1107.0193,0.163047
1108.8830,0.157950
1110.7467,0.147827
1112.6103,0.134807
1114.4740,0.121489
1116.3377,0.109596
1118.2014,0.099958
1120.0650,0.092835
1121.9287,0.087891
1123.7924,0.084507
1125.6560,0.081929
1127.5197,0.079600
1129.3834,0.077415
1131.2470,0.075427
1133.1107,0.073721
1134.9744,0.072442
1136.8380,0.071590
1138.7017,0.071092
1140.5654,0.070800
1142.4290,0.070758
1144.2927,0.070857
1146.1564,0.071008
1148.0201,0.071202
1149.8837,0.071400
1151.7474,0.071727
1153.6111,0.072292
1155.4747,0.073064
1157.3384,0.074052
1159.2021,0.075146
1161.0657,0.076371
1162.9294,0.078087
1164.7931,0.080384
1166.6567,0.083242
1168.5204,0.086669
1170.3841,0.090180
1172.2477,0.092543
1174.1114,0.092046
1175.9751,0.088205
1177.8388,0.082802
1179.7024,0.078139
1181.5661,0.075337
1183.4298,0.074020
1185.2934,0.073445
1187.1571,0.073353
1189.0208,0.073496
1190.8844,0.073637
1192.7481,0.073863
1194.6118,0.074125
1196.4754,0.074338
1198.3391,0.074639
1200.2028,0.074948
1202.0665,0.075193
1203.9301,0.075359
1205.7938,0.075509
1207.6575,0.075651
1209.5211,0.075868
1211.3848,0.076157
1213.2485,0.076486
1215.1121,0.076968
1216.9758,0.077554
1218.8395,0.078086
1220.7031,0.078600
1222.5668,0.079157
1224.4305,0.079714
1226.2941,0.080279
1228.1578,0.080802
1230.0215,0.081235
1231.8852,0.081632
1233.7488,0.081949
1235.6125,0.082243
1237.4762,0.082525
1239.3398,0.082780
1241.2035,0.083119
1243.0672,0.083554
1244.9308,0.083956
1246.7945,0.084318
1248.6582,0.084718
1250.5218,0.085167
1252.3855,0.085546
1254.2492,0.085879
1256.1129,0.086308
1257.9765,0.086904
1259.8402,0.087677
1261.7039,0.088534
1263.5675,0.089293
1265.4312,0.090063
1267.2949,0.090587
1269.1585,0.090632
1271.0222,0.090499
1272.8859,0.090433
1274.7495,0.090571
1276.6132,0.091194
1278.4769,0.092143
1280.3405,0.093351
1282.2042,0.094766
1284.0679,0.096269
1285.9316,0.098059
1287.7952,0.100315
1289.6589,0.102853
1291.5226,0.105642
1293.3862,0.109022
1295.2499,0.113247
1297.1136,0.118393
1298.9772,0.124431
1300.8409,0.131706
1302.7046,0.139872
1304.5682,0.146556
1306.4319,0.147353
1308.2956,0.137167
1310.1592,0.116939
1312.0229,0.096218
1313.8866,0.082517
1315.7503,0.076951
1317.6139,0.076518
1319.4776,0.078289
1321.3413,0.080442
1323.2049,0.082704
1325.0686,0.085320
1326.9323,0.087979
1328.7959,0.090654
1330.6596,0.093207
1332.5233,0.095204
1334.3869,0.096369
1336.2506,0.097275
1338.1143,0.099105
1339.9780,0.101371
1341.8416,0.101597
1343.7053,0.100922
1345.5690,0.101270
1347.4326,0.102123
1349.2963,0.103281
1351.1600,0.104733
1353.0236,0.106535
1354.8873,0.108863
1356.7510,0.111207
1358.6146,0.113107
1360.4783,0.115891
1362.3420,0.121286
1364.2056,0.125840
1366.0693,0.127379
1367.9330,0.130670
1369.7967,0.134933
1371.6603,0.138200
1373.5240,0.143523
1375.3877,0.149760
1377.2513,0.152959
1379.1150,0.157330
1380.9787,0.163316
1382.8423,0.169196
1384.7060,0.175568
1386.5697,0.184626
1388.4333,0.195098
1390.2970,0.199577
1392.1607,0.201590
1394.0244,0.203274
1395.8880,0.199010
1397.7517,0.189405
1399.6154,0.178570
1401.4790,0.167811
1403.3427,0.158606
1405.2064,0.145958
1407.0700,0.127816
1408.9337,0.110106
1410.7974,0.094534
1412.6610,0.083440
1414.5247,0.077799
1416.3884,0.077283
1418.2520,0.082924
1420.1157,0.092214
1421.9794,0.095508
1423.8431,0.093383
1425.7067,0.085109
1427.5704,0.076024
1429.4341,0.071163
1431.2977,0.069685
1433.1614,0.069445
1435.0251,0.071178
1436.8887,0.075953
1438.7524,0.078172
1440.6161,0.077886
1442.4797,0.079075
1444.3434,0.080302
1446.2071,0.081296
1448.0707,0.082060
1449.9344,0.080450
1451.7981,0.076918
1453.6618,0.073655
1455.5254,0.073519
1457.3891,0.079168
1459.2528,0.080249
1461.1164,0.077210
1462.9801,0.076630
1464.8438,0.077927
1466.7074,0.077165
1468.5711,0.074314
1470.4348,0.073362
1472.2984,0.075576
1474.1621,0.077433
1476.0258,0.076023
1477.8895,0.075323
1479.7531,0.074914
1481.6168,0.075458
1483.4805,0.075527
1485.3441,0.075523
1487.2078,0.077348
1489.0715,0.081189
1490.9351,0.083570
1492.7988,0.082175
1494.6625,0.081776
1496.5261,0.085807
1498.3898,0.089480
1500.2535,0.089326
1502.1171,0.087854
1503.9808,0.087364
1505.8445,0.092226
1507.7082,0.104829
1509.5718,0.101941
1511.4355,0.099270
1513.2992,0.099436
1515.1628,0.100664
1517.0265,0.103371
1518.8902,0.104858
1520.7538,0.107195
1522.6175,0.112216
1524.4812,0.111033
1526.3448,0.111941
1528.2085,0.112865
1530.0722,0.111801
1531.9359,0.112662
1533.7995,0.116719
1535.6632,0.116128
1537.5269,0.114270
1539.3905,0.120090
1541.2542,0.131050
1543.1179,0.130204
1544.9815,0.130051
1546.8452,0.129445
1548.7089,0.129853
1550.5725,0.132700
1552.4362,0.134086
1554.2999,0.135108
1556.1635,0.137599
1558.0272,0.144775
1559.8909,0.162631
1561.7546,0.154188
1563.6182,0.150441
1565.4819,0.152163
1567.3456,0.154379
1569.2092,0.159108
1571.0729,0.163989
1572.9366,0.162545
1574.8002,0.165529
1576.6639,0.174579
1578.5276,0.176932
1580.3912,0.175845
1582.2549,0.178127
1584.1186,0.179928
1585.9822,0.181206
1587.8459,0.181887
1589.7096,0.182464
1591.5733,0.181764
1593.4369,0.180693
1595.3006,0.179041
1597.1643,0.176801
1599.0279,0.173754
1600.8916,0.171098
1602.7553,0.168572
1604.6189,0.166076
1606.4826,0.163715
1608.3463,0.162266
1610.2099,0.160119
1612.0736,0.156627
1613.9373,0.152970
1615.8010,0.150659
1617.6646,0.145320
1619.5283,0.136796
1621.3920,0.131445
1623.2556,0.126422
1625.1193,0.119093
1626.9830,0.111836
1628.8466,0.103599
1630.7103,0.094939
1632.5740,0.088046
1634.4376,0.082724
1636.3013,0.076812
1638.1650,0.071413
1640.0286,0.069298
1641.8923,0.068185
1643.7560,0.068228
1645.6197,0.070179
1647.4833,0.074093
1649.3470,0.074661
1651.2107,0.075528
1653.0743,0.082082
1654.9380,0.086594
1656.8017,0.083336
1658.6653,0.082666
1660.5290,0.082506
1662.3927,0.082088
1664.2563,0.079891
1666.1200,0.077023
1667.9837,0.075175
1669.8474,0.074066
1671.7110,0.072427
1673.5747,0.071996
1675.4384,0.073634
1677.3020,0.075467
1679.1657,0.076440
1681.0294,0.079778
1682.8930,0.084258
1684.7567,0.091857
1686.6204,0.092035
1688.4840,0.089384
1690.3477,0.087218
1692.2114,0.083630
1694.0750,0.080072
1695.9387,0.076915
1697.8024,0.072473
1699.6661,0.069094
1701.5297,0.062174
1703.3934,0.055885
1705.2571,0.049462
1707.1207,0.041720
1708.9844,0.035527
1710.8481,0.031353
1712.7117,0.028254
1714.5754,0.026293
1716.4391,0.024872
1718.3027,0.023752
1720.1664,0.022014
1722.0301,0.021016
1723.8937,0.019653
1725.7574,0.017861
1727.6211,0.015944
1729.4848,0.014651
1731.3484,0.013731
1733.2121,0.013219
1735.0758,0.012051
1736.9394,0.011504
1738.8031,0.010852
1740.6668,0.010756
1742.5304,0.010409
1744.3941,0.010039
1746.2578,0.009681
1748.1214,0.009938
1749.9851,0.009932
1751.8488,0.009423
1753.7125,0.008858
1755.5761,0.008920
1757.4398,0.008776
1759.3035,0.008706
1761.1671,0.008556
1763.0308,0.008671
1764.8945,0.008343
1766.7581,0.008295
1768.6218,0.008188
1770.4855,0.008392
1772.3491,0.008410
1774.2128,0.008436
1776.0765,0.008048
1777.9401,0.008118
1779.8038,0.008074
1781.6675,0.008285
1783.5312,0.008278
1785.3948,0.008238
1787.2585,0.008075
1789.1222,0.008200
1790.9858,0.008405
1792.8495,0.008646
1794.7132,0.008465
1796.5768,0.008368
1798.4405,0.008292
1800.3042,0.008508
1802.1678,0.008654
1804.0315,0.008660
1805.8952,0.008509
1807.7589,0.008658
1809.6225,0.008582
1811.4862,0.008662
1813.3499,0.008484
1815.2135,0.008403
1817.0772,0.008344
1818.9409,0.008613
1820.8045,0.008326
1822.6682,0.008260
1824.5319,0.008390
1826.3955,0.008464
1828.2592,0.008483
1830.1229,0.008676
1831.9865,0.008357
1833.8502,0.008092
1835.7139,0.007982
1837.5776,0.008099
1839.4412,0.008190
1841.3049,0.008394
1843.1686,0.008321
1845.0322,0.008641
1846.8959,0.008530
1848.7596,0.008399
1850.6232,0.008326
1852.4869,0.008289
1854.3506,0.008393
1856.2142,0.008611
1858.0779,0.008520
1859.9416,0.008444
1861.8052,0.008490
1863.6689,0.008906
1865.5326,0.008857
1867.3963,0.009016
1869.2599,0.008847
1871.1236,0.008372
1872.9873,0.008112
1874.8509,0.008217
1876.7146,0.008434
1878.5783,0.008599
1880.4419,0.008233
1882.3056,0.008343
1884.1693,0.008504
1886.0329,0.008392
1887.8966,0.008261
1889.7603,0.008476
1891.6240,0.008216
1893.4876,0.008090
1895.3513,0.008213
1897.2150,0.008297
1899.0786,0.008189
1900.9423,0.008676
1902.8060,0.008385
1904.6696,0.008245
1906.5333,0.008328
1908.3970,0.008654
1910.2606,0.008699
1912.1243,0.008586
1913.9880,0.008317
1915.8516,0.008420
1917.7153,0.008237
1919.5790,0.008504
1921.4427,0.008016
1923.3063,0.007662
1925.1700,0.007488
1927.0337,0.007508
1928.8973,0.007759
1930.7610,0.008752
1932.6247,0.008622
1934.4883,0.008184
1936.3520,0.007849
1938.2157,0.007498
1940.0793,0.007516
1941.9430,0.007824
1943.8067,0.007090
1945.6704,0.006882
1947.5340,0.006740
1949.3977,0.007124
1951.2614,0.007380
1953.1250,0.006973
1954.9887,0.005885
1956.8524,0.005219
1958.7160,0.005222
1960.5797,0.005300
1962.4434,0.003758
1964.3070,0.003096
1966.1707,0.003213
1968.0344,0.003424
1969.8980,0.002078
1971.7617,0.002352
1973.6254,0.002471
1975.4891,0.003198
1977.3527,0.003150
1979.2164,0.003774
1981.0801,0.004912
1982.9437,0.005892
1984.8074,0.006220
1986.6711,0.006349
1988.5347,0.005656
1990.3984,0.006177
1992.2621,0.005467
1994.1257,0.005254
1995.9894,0.005221
1997.8531,0.005832
1999.7167,0.005285
2001.5804,0.005672
2003.4441,0.006275
2005.3078,0.006148
2007.1714,0.005099
2009.0351,0.004784
2010.8988,0.004585
2012.7624,0.004878
2014.6261,0.004831
2016.4898,0.004930
2018.3534,0.003713
2020.2171,0.003761
2022.0808,0.003766
2023.9444,0.003673
2025.8081,0.003041
2027.6718,0.003162
2029.5355,0.002350
2031.3991,0.003481
2033.2628,0.004204
2035.1265,0.004381
2036.9901,0.004517
2038.8538,0.004923
2040.7175,0.004810
2042.5811,0.005337
2044.4448,0.004577
2046.3085,0.006386
2048.1721,0.007433
2050.0358,0.007736
2051.8995,0.008032
2053.7631,0.008122
2055.6268,0.007993
2057.4905,0.009008
2059.3542,0.009815
2061.2178,0.009756
2063.0815,0.009380
2064.9452,0.009530
2066.8088,0.008926
2068.6725,0.009040
2070.5362,0.009185
2072.3998,0.009328
2074.2635,0.009594
2076.1272,0.009962
2077.9908,0.009983
2079.8545,0.010071
2081.7182,0.010131
2083.5819,0.010684
2085.4455,0.010717
2087.3092,0.010597
2089.1729,0.010552
2091.0365,0.010971
2092.9002,0.010583
2094.7639,0.010578
2096.6275,0.010589
2098.4912,0.010466
2100.3549,0.010706
2102.2185,0.011148
2104.0822,0.011238
2105.9459,0.011315
2107.8095,0.011515
2109.6732,0.011874
2111.5369,0.011676
2113.4006,0.011924
2115.2642,0.011806
2117.1279,0.011855
2118.9916,0.011976
2120.8552,0.011373
2122.7189,0.010603
2124.5826,0.011243
2126.4462,0.011589
2128.3099,0.011428
2130.1736,0.010516
2132.0372,0.009911
2133.9009,0.010039
2135.7646,0.010230
2137.6282,0.009625
2139.4919,0.009074
2141.3556,0.008257
2143.2193,0.008251
2145.0829,0.008486
2146.9466,0.008179
2148.8103,0.007259
2150.6739,0.007188
2152.5376,0.007476
2154.4013,0.005854
2156.2649,0.002703
2158.1286,0.003079
2159.9923,0.005413
2161.8559,0.006449
2163.7196,0.006580
2165.5833,0.005985
2167.4470,0.004960
2169.3106,0.006273
2171.1743,0.007656
2173.0380,0.008097
2174.9016,0.007715
2176.7653,0.007740
2178.6290,0.006974
2180.4926,0.006309
2182.3563,0.007161
2184.2200,0.007993
2186.0836,0.008659
2187.9473,0.008349
2189.8110,0.007833
2191.6746,0.008996
2193.5383,0.009266
2195.4020,0.009731
2197.2657,0.010613
2199.1293,0.010372
2200.9930,0.010207
2202.8567,0.010389
2204.7203,0.009862
2206.5840,0.010445
2208.4477,0.010926
2210.3113,0.011154
2212.1750,0.010881
2214.0387,0.010462
2215.9023,0.011161
2217.7660,0.012426
2219.6297,0.012242
2221.4934,0.011994
2223.3570,0.011837
2225.2207,0.011819
2227.0844,0.011734
2228.9480,0.011534
2230.8117,0.011676
2232.6754,0.012578
2234.5390,0.012881
2236.4027,0.012932
2238.2664,0.012651
2240.1300,0.013274
2241.9937,0.013893
2243.8574,0.013901
2245.7210,0.013232
2247.5847,0.013484
2249.4484,0.013834
2251.3121,0.013701
2253.1757,0.013610
2255.0394,0.013845
2256.9031,0.014375
2258.7667,0.014977
2260.6304,0.014681
2262.4941,0.014601
2264.3577,0.014890
2266.2214,0.014635
2268.0851,0.014713
2269.9487,0.015170
2271.8124,0.015764
2273.6761,0.016337
2275.5397,0.016703
2277.4034,0.017153
2279.2671,0.017185
2281.1308,0.017470
2282.9944,0.017952
2284.8581,0.017980
2286.7218,0.017918
2288.5854,0.018174
2290.4491,0.018121
2292.3128,0.017953
2294.1764,0.017645
2296.0401,0.017822
2297.9038,0.018042
2299.7674,0.017688
2301.6311,0.017628
2303.4948,0.018100
2305.3585,0.018251
2307.2221,0.018327
2309.0858,0.018409
2310.9495,0.018351
2312.8131,0.018385
2314.6768,0.018520
2316.5405,0.018459
2318.4041,0.018203
2320.2678,0.018100
2322.1315,0.018378
2323.9951,0.018568
2325.8588,0.018215
2327.7225,0.017582
2329.5861,0.017308
2331.4498,0.017162
2333.3135,0.017037
2335.1772,0.017012
2337.0408,0.017191
2338.9045,0.017383
2340.7682,0.017466
2342.6318,0.017240
2344.4955,0.017226
2346.3592,0.017167
2348.2228,0.017047
2350.0865,0.017035
2351.9502,0.017383
2353.8138,0.017285
2355.6775,0.016750
2357.5412,0.016437
2359.4049,0.016549
2361.2685,0.016388
2363.1322,0.016516
2364.9959,0.016906
2366.8595,0.017362
2368.7232,0.017310
2370.5869,0.017325
2372.4505,0.018061
2374.3142,0.018291
2376.1779,0.017919
2378.0415,0.017731
2379.9052,0.018015
2381.7689,0.018208
2383.6325,0.018146
2385.4962,0.018015
2387.3599,0.018038
2389.2236,0.018220
2391.0872,0.018208
2392.9509,0.018061
2394.8146,0.017966
2396.6782,0.018031
2398.5419,0.018305
2400.4056,0.018573
2402.2692,0.018334
2404.1329,0.018166
2405.9966,0.018304
2407.8602,0.018456
2409.7239,0.018642
2411.5876,0.018610
2413.4512,0.018392
2415.3149,0.018635
2417.1786,0.018941
2419.0423,0.018929
2420.9059,0.018891
2422.7696,0.019041
2424.6333,0.019095
2426.4969,0.019334
2428.3606,0.019579
2430.2243,0.019350
2432.0879,0.019249
2433.9516,0.019334
2435.8153,0.019518
2437.6789,0.019497
2439.5426,0.019442
2441.4063,0.019599
2443.2700,0.019684
2445.1336,0.019593
2446.9973,0.019587
2448.8610,0.019399
2450.7246,0.019122
2452.5883,0.018838
2454.4520,0.018822
2456.3156,0.019111
2458.1793,0.019263
2460.0430,0.019121
2461.9066,0.018891
2463.7703,0.018808
2465.6340,0.018915
2467.4976,0.019162
2469.3613,0.019344
2471.2250,0.019191
2473.0887,0.018822
2474.9523,0.018820
2476.8160,0.019114
2478.6797,0.019609
2480.5433,0.019531
2482.4070,0.019008
2484.2707,0.019016
2486.1343,0.019102
2487.9980,0.019416
2489.8617,0.019956
2491.7253,0.020110
2493.5890,0.020050
2495.4527,0.020288
2497.3164,0.020373
2499.1800,0.020172
2501.0437,0.020064
2502.9074,0.020066
2504.7710,0.020346
2506.6347,0.020468
2508.4984,0.020406
2510.3620,0.020468
2512.2257,0.020434
2514.0894,0.020293
2515.9530,0.020137
2517.8167,0.020336
2519.6804,0.020873
2521.5440,0.021054
2523.4077,0.020754
2525.2714,0.020577
2527.1351,0.020863
