Wavenumber,Intensity
650.4205,0.204300
652.2841,0.199467
654.1478,0.197832
656.0115,0.194616
657.8751,0.191884
659.7388,0.187339
661.6025,0.184208
663.4661,0.182198
665.3298,0.179534
667.1935,0.177787
669.0571,0.177766
670.9208,0.176345
672.7845,0.176088
674.6481,0.176253
676.5118,0.177451
678.3755,0.176867
680.2392,0.176006
682.1028,0.176059
683.9665,0.176456
685.8302,0.176268
687.6938,0.176608
689.5575,0.176799
691.4212,0.178433
693.2848,0.177860
695.1485,0.176127
697.0122,0.177265
698.8758,0.180602
700.7395,0.181678
702.6032,0.180928
704.4669,0.178594
706.3305,0.174052
708.1942,0.166865
710.0579,0.159244
711.9215,0.151620
713.7852,0.144663
715.6489,0.138175
717.5125,0.132827
719.3762,0.128204
721.2399,0.122848
723.1035,0.117870
724.9672,0.114089
726.8309,0.109948
728.6945,0.106363
730.5582,0.102846
732.4219,0.098778
734.2856,0.095157
736.1492,0.092555
738.0129,0.091005
739.8766,0.090762
741.7402,0.092313
743.6039,0.094047
745.4676,0.094670
747.3312,0.095006
749.1949,0.094591
751.0586,0.093687
752.9222,0.092464
754.7859,0.091250
756.6496,0.090510
758.5132,0.089932
760.3769,0.089304
762.2406,0.089168
764.1043,0.088623
765.9679,0.087649
767.8316,0.087214
769.6953,0.087114
771.5589,0.087141
773.4226,0.087792
775.2863,0.088605
777.1499,0.089422
779.0136,0.090247
780.8773,0.091193
782.7409,0.092387
784.6046,0.093561
786.4683,0.094716
788.3320,0.096241
790.1956,0.098018
792.0593,0.099818
793.9230,0.101570
795.7866,0.103294
797.6503,0.104565
799.5140,0.105695
801.3776,0.106484
803.2413,0.106972
805.1050,0.106646
806.9686,0.105347
808.8323,0.103385
810.6960,0.101152
812.5596,0.098615
814.4233,0.095945
816.2870,0.093103
818.1507,0.090408
820.0143,0.088028
821.8780,0.085902
823.7417,0.084687
825.6053,0.084815
827.4690,0.086105
829.3327,0.086446
831.1963,0.081459
833.0600,0.071277
834.9237,0.062406
836.7873,0.058040
838.6510,0.056398
840.5147,0.055366
842.3784,0.054730
844.2420,0.054606
846.1057,0.054565
847.9694,0.054466
849.8330,0.054456
851.6967,0.054173
853.5604,0.053762
855.4240,0.053759
857.2877,0.053950
859.1514,0.054098
861.0150,0.054131
862.8787,0.054122
864.7424,0.054249
866.6060,0.054437
868.4697,0.054661
870.3334,0.054834
872.1971,0.054927
874.0607,0.055040
875.9244,0.055315
877.7881,0.055844
879.6517,0.056267
881.5154,0.056401
883.3791,0.056753
885.2427,0.057111
887.1064,0.057538
888.9701,0.058040
890.8337,0.058509
892.6974,0.059193
894.5611,0.059862
896.4247,0.060524
898.2884,0.061525
900.1521,0.062844
902.0158,0.064494
903.8794,0.066776
905.7431,0.070053
907.6068,0.074176
909.4704,0.078697
911.3341,0.084094
913.1978,0.090309
915.0614,0.092984
916.9251,0.085947
918.7888,0.072401
920.6524,0.061782
922.5161,0.057178
924.3798,0.056015
926.2435,0.055841
928.1071,0.056143
929.9708,0.056784
931.8345,0.057361
933.6981,0.057936
935.5618,0.058694
937.4255,0.059514
939.2891,0.060302
941.1528,0.061116
943.0165,0.061979
944.8801,0.062817
946.7438,0.063733
948.6075,0.064835
950.4711,0.065972
952.3348,0.067038
954.1985,0.068122
956.0622,0.069389
957.9258,0.070717
959.7895,0.071960
961.6532,0.073174
963.5168,0.074558
965.3805,0.076215
967.2442,0.078251
969.1078,0.080723
970.9715,0.083374
972.8352,0.086516
974.6988,0.091532
976.5625,0.100035
978.4262,0.114606
980.2899,0.135279
982.1535,0.144424
984.0172,0.122758
985.8809,0.092738
987.7445,0.078864
989.6082,0.076754
991.4719,0.077524
993.3355,0.078734
995.1992,0.079987
997.0629,0.081229
998.9265,0.082357
1000.7902,0.083533
1002.6539,0.084815
1004.5175,0.086138
1006.3812,0.087392
1008.2449,0.088486
1010.1086,0.089618
1011.9722,0.090827
1013.8359,0.091937
1015.6996,0.092874
1017.5632,0.093698
1019.4269,0.094519
1021.2906,0.095383
1023.1542,0.096221
1025.0179,0.097100
1026.8816,0.098014
1028.7452,0.098910
1030.6089,0.099924
1032.4726,0.101173
1034.3362,0.102594
1036.1999,0.104284
1038.0636,0.106411
1039.9273,0.108933
1041.7909,0.111882
1043.6546,0.115314
1045.5183,0.118929
1047.3819,0.121839
1049.2456,0.121936
1051.1093,0.117239
1052.9729,0.108942
1054.8366,0.100735
1056.7003,0.095128
1058.5639,0.092256
1060.4276,0.091212
1062.2913,0.090977
1064.1550,0.091143
1066.0186,0.091670
1067.8823,0.092525
1069.7460,0.093565
1071.6096,0.094659
1073.4733,0.095821
1075.3370,0.096980
1077.2006,0.098236
1079.0643,0.099783
1080.9280,0.101524
1082.7916,0.103542
1084.6553,0.105901
1086.5190,0.108410
1088.3826,0.111000
1090.2463,0.114042
1092.1100,0.117720
1093.9737,0.121741
1095.8373,0.126048
1097.7010,0.130968
1099.5647,0.136439
1101.4283,0.141868
1103.2920,0.146717
1105.1557,0.150016
1107.0193,0.150122
1108.8830,0.145779
1110.7467,0.137116
1112.6103,0.125641
1114.4740,0.113631
1116.3377,0.102880
1118.2014,0.094138
1120.0650,0.087595
1121.9287,0.083014
1123.7924,0.079910
1125.6560,0.077589
1127.5197,0.075418
1129.3834,0.073268
1131.2470,0.071226
1133.1107,0.069291
1134.9744,0.067649
1136.8380,0.066464
1138.7017,0.065714
1140.5654,0.065369
1142.4290,0.065312
1144.2927,0.065477
1146.1564,0.065724
1148.0201,0.065959
1149.8837,0.066312
1151.7474,0.066806
1153.6111,0.067382
1155.4747,0.068027
1157.3384,0.068717
1159.2021,0.069506
1161.0657,0.070450
1162.9294,0.071606
1164.7931,0.073242
1166.6567,0.075527
1168.5204,0.078317
1170.3841,0.081182
1172.2477,0.083075
1174.1114,0.082359
1175.9751,0.078541
1177.8388,0.073564
1179.7024,0.069452
1181.5661,0.066838
1183.4298,0.065659
1185.2934,0.065390
1187.1571,0.065499
1189.0208,0.065623
1190.8844,0.065695
1192.7481,0.065706
1194.6118,0.065624
1196.4754,0.065548
1198.3391,0.065506
1200.2028,0.065576
1202.0665,0.065749
1203.9301,0.066016
1205.7938,0.066347
1207.6575,0.066715
1209.5211,0.067156
1211.3848,0.067716
1213.2485,0.068351
1215.1121,0.069044
1216.9758,0.069871
1218.8395,0.070659
1220.7031,0.071370
1222.5668,0.072137
1224.4305,0.072894
1226.2941,0.073651
1228.1578,0.074442
1230.0215,0.075259
1231.8852,0.076070
1233.7488,0.076859
1235.6125,0.077604
1237.4762,0.078289
1239.3398,0.078959
1241.2035,0.079562
1243.0672,0.080131
1244.9308,0.080680
1246.7945,0.081243
1248.6582,0.081871
1250.5218,0.082501
1252.3855,0.083181
1254.2492,0.083843
1256.1129,0.084426
1257.9765,0.085106
1259.8402,0.086029
1261.7039,0.087058
1263.5675,0.088007
1265.4312,0.088835
1267.2949,0.089315
1269.1585,0.089343
1271.0222,0.089165
1272.8859,0.089065
1274.7495,0.089292
1276.6132,0.089892
1278.4769,0.090724
1280.3405,0.091817
1282.2042,0.093168
1284.0679,0.094571
1285.9316,0.096186
1287.7952,0.098360
1289.6589,0.100903
1291.5226,0.103653
1293.3862,0.106959
1295.2499,0.111032
1297.1136,0.115916
1298.9772,0.121852
1300.8409,0.129066
1302.7046,0.136707
1304.5682,0.141912
1306.4319,0.140741
1308.2956,0.129945
1310.1592,0.110977
1312.0229,0.091680
1313.8866,0.078760
1315.7503,0.073438
1317.6139,0.072983
1319.4776,0.074623
1321.3413,0.076664
1323.2049,0.078846
1325.0686,0.081355
1326.9323,0.083898
1328.7959,0.086389
1330.6596,0.088758
1332.5233,0.090610
1334.3869,0.091793
1336.2506,0.092819
1338.1143,0.094477
1339.9780,0.096460
1341.8416,0.097147
1343.7053,0.097111
1345.5690,0.097773
1347.4326,0.098926
1349.2963,0.100315
1351.1600,0.101971
1353.0236,0.103901
1354.8873,0.106251
1356.7510,0.108697
1358.6146,0.110879
1360.4783,0.113748
1362.3420,0.118515
1364.2056,0.122836
1366.0693,0.124895
1367.9330,0.127911
1369.7967,0.131673
1371.6603,0.134628
1373.5240,0.138777
1375.3877,0.143500
1377.2513,0.146473
1379.1150,0.150408
1380.9787,0.155630
1382.8423,0.160954
1384.7060,0.166954
1386.5697,0.174889
1388.4333,0.183381
1390.2970,0.187741
1392.1607,0.189980
1394.0244,0.190627
1395.8880,0.185854
1397.7517,0.177502
1399.6154,0.168258
1401.4790,0.159224
1403.3427,0.151452
1405.2064,0.140191
1407.0700,0.123923
1408.9337,0.107346
1410.7974,0.092180
1412.6610,0.081105
1414.5247,0.075533
1416.3884,0.074671
1418.2520,0.078930
1420.1157,0.086999
1421.9794,0.090828
1423.8431,0.089439
1425.7067,0.082195
1427.5704,0.073469
1429.4341,0.067728
1431.2977,0.065083
1433.1614,0.064310
1435.0251,0.065192
1436.8887,0.068463
1438.7524,0.070479
1440.6161,0.070931
1442.4797,0.072261
1444.3434,0.073509
1446.2071,0.074542
1448.0707,0.075078
1449.9344,0.073533
1451.7981,0.070753
1453.6618,0.068000
1455.5254,0.067260
1457.3891,0.070830
1459.2528,0.072461
1461.1164,0.071231
1462.9801,0.071261
1464.8438,0.072189
1466.7074,0.071450
1468.5711,0.069208
1470.4348,0.068085
1472.2984,0.069003
1474.1621,0.070133
1476.0258,0.069667
1477.8895,0.069271
1479.7531,0.068919
1481.6168,0.069197
1483.4805,0.069417
1485.3441,0.069490
1487.2078,0.070333
1489.0715,0.072568
1490.9351,0.074574
1492.7988,0.074044
1494.6625,0.073703
1496.5261,0.076043
1498.3898,0.078541
1500.2535,0.078824
1502.1171,0.078103
1503.9808,0.077749
1505.8445,0.080596
1507.7082,0.087897
1509.5718,0.087501
1511.4355,0.086594
1513.2992,0.087095
1515.1628,0.088174
1517.0265,0.090222
1518.8902,0.091451
1520.7538,0.093207
1522.6175,0.096566
1524.4812,0.096597
1526.3448,0.097641
1528.2085,0.098870
1530.0722,0.098870
1531.9359,0.099892
1533.7995,0.102956
1535.6632,0.103340
1537.5269,0.102521
1539.3905,0.106498
1541.2542,0.114127
1543.1179,0.115145
1544.9815,0.116359
1546.8452,0.117433
1548.7089,0.118645
1550.5725,0.121261
1552.4362,0.123053
1554.2999,0.124511
1556.1635,0.126747
1558.0272,0.132365
1559.8909,0.144718
1561.7546,0.141797
1563.6182,0.140284
1565.4819,0.142587
1567.3456,0.145507
1569.2092,0.149977
1571.0729,0.154501
1572.9366,0.155087
1574.8002,0.158467
1576.6639,0.166003
1578.5276,0.169179
1580.3912,0.169912
1582.2549,0.172644
1584.1186,0.175220
1585.9822,0.177102
1587.8459,0.178211
1589.7096,0.178817
1591.5733,0.178620
1593.4369,0.177876
1595.3006,0.176321
1597.1643,0.174062
1599.0279,0.171205
1600.8916,0.168438
1602.7553,0.165735
1604.6189,0.162796
1606.4826,0.160280
1608.3463,0.158167
1610.2099,0.155442
1612.0736,0.152038
1613.9373,0.148484
1615.8010,0.145065
1617.6646,0.138741
1619.5283,0.130711
1621.3920,0.125537
1623.2556,0.119986
1625.1193,0.112229
1626.9830,0.104717
1628.8466,0.096444
1630.7103,0.087905
1632.5740,0.080890
1634.4376,0.074383
1636.3013,0.067653
1638.1650,0.062744
1640.0286,0.060500
1641.8923,0.058880
1643.7560,0.058596
1645.6197,0.059967
1647.4833,0.062912
1649.3470,0.064081
1651.2107,0.065346
1653.0743,0.070135
1654.9380,0.074534
1656.8017,0.073598
1658.6653,0.073881
1660.5290,0.074434
1662.3927,0.074688
1664.2563,0.073621
1666.1200,0.071968
1667.9837,0.070941
1669.8474,0.070220
1671.7110,0.069243
1673.5747,0.069475
1675.4384,0.071473
1677.3020,0.073655
1679.1657,0.075309
1681.0294,0.078642
1682.8930,0.082523
1684.7567,0.087646
1686.6204,0.088852
1688.4840,0.087794
1690.3477,0.086470
1692.2114,0.083922
1694.0750,0.081335
1695.9387,0.079009
1697.8024,0.075394
1699.6661,0.072679
1701.5297,0.066903
1703.3934,0.060900
1705.2571,0.055009
1707.1207,0.047401
1708.9844,0.041478
1710.8481,0.037141
1712.7117,0.033756
1714.5754,0.031590
1716.4391,0.030067
1718.3027,0.029199
1720.1664,0.027729
1722.0301,0.026716
1723.8937,0.025388
1725.7574,0.023517
1727.6211,0.021556
1729.4848,0.019802
1731.3484,0.018380
1733.2121,0.017677
1735.0758,0.016435
1736.9394,0.015344
1738.8031,0.014802
1740.6668,0.014452
1742.5304,0.013938
1744.3941,0.013507
1746.2578,0.012878
1748.1214,0.012503
1749.9851,0.011935
1751.8488,0.011316
1753.7125,0.010923
1755.5761,0.010956
1757.4398,0.010895
1759.3035,0.010838
1761.1671,0.010731
1763.0308,0.010594
1764.8945,0.010326
1766.7581,0.010277
1768.6218,0.010121
1770.4855,0.010132
1772.3491,0.010190
1774.2128,0.010193
1776.0765,0.010020
1777.9401,0.010131
1779.8038,0.010290
1781.6675,0.010482
1783.5312,0.010490
1785.3948,0.010649
1787.2585,0.010580
1789.1222,0.010441
1790.9858,0.010405
1792.8495,0.010545
1794.7132,0.010507
1796.5768,0.010511
1798.4405,0.010516
1800.3042,0.010659
1802.1678,0.010680
1804.0315,0.010811
1805.8952,0.010798
1807.7589,0.010857
1809.6225,0.011008
1811.4862,0.010971
1813.3499,0.010602
1815.2135,0.010547
1817.0772,0.010534
1818.9409,0.010788
1820.8045,0.010848
1822.6682,0.010769
1824.5319,0.010599
1826.3955,0.010644
1828.2592,0.010403
1830.1229,0.010471
1831.9865,0.010564
1833.8502,0.010541
1835.7139,0.010454
1837.5776,0.010554
1839.4412,0.010431
1841.3049,0.010477
1843.1686,0.010693
1845.0322,0.010817
1846.8959,0.010671
1848.7596,0.010719
1850.6232,0.010568
1852.4869,0.010635
1854.3506,0.010886
1856.2142,0.010962
1858.0779,0.010801
1859.9416,0.010941
1861.8052,0.011129
1863.6689,0.011162
1865.5326,0.011110
1867.3963,0.011066
1869.2599,0.010779
1871.1236,0.011006
1872.9873,0.011009
1874.8509,0.011056
1876.7146,0.011092
1878.5783,0.011051
1880.4419,0.010974
1882.3056,0.010903
1884.1693,0.010786
1886.0329,0.011109
1887.8966,0.011019
1889.7603,0.011096
1891.6240,0.011050
1893.4876,0.010736
1895.3513,0.010692
1897.2150,0.010906
1899.0786,0.010942
1900.9423,0.011130
1902.8060,0.010885
1904.6696,0.010936
1906.5333,0.011108
1908.3970,0.011005
1910.2606,0.010395
1912.1243,0.010684
1913.9880,0.011181
1915.8516,0.011354
1917.7153,0.010902
1919.5790,0.010464
1921.4427,0.010799
1923.3063,0.011172
1925.1700,0.010858
1927.0337,0.010897
1928.8973,0.010709
1930.7610,0.010412
1932.6247,0.010267
1934.4883,0.010725
1936.3520,0.010822
1938.2157,0.010164
1940.0793,0.009413
1941.9430,0.009899
1943.8067,0.009756
1945.6704,0.009186
1947.5340,0.009355
1949.3977,0.010030
1951.2614,0.009659
1953.1250,0.009557
1954.9887,0.008988
1956.8524,0.008625
1958.7160,0.007936
1960.5797,0.007340
1962.4434,0.006733
1964.3070,0.006368
1966.1707,0.005923
1968.0344,0.005872
1969.8980,0.005179
1971.7617,0.005371
1973.6254,0.004727
1975.4891,0.004011
1977.3527,0.005386
1979.2164,0.007393
1981.0801,0.006818
1982.9437,0.006589
1984.8074,0.006740
1986.6711,0.007446
1988.5347,0.007376
1990.3984,0.007802
1992.2621,0.007760
1994.1257,0.007803
1995.9894,0.008330
1997.8531,0.009071
1999.7167,0.008083
2001.5804,0.008203
2003.4441,0.008248
2005.3078,0.007366
2007.1714,0.005832
2009.0351,0.006399
2010.8988,0.006870
2012.7624,0.006944
2014.6261,0.006481
2016.4898,0.006132
2018.3534,0.005280
2020.2171,0.005368
2022.0808,0.004973
2023.9444,0.005476
2025.8081,0.005481
2027.6718,0.005457
2029.5355,0.005266
2031.3991,0.005691
2033.2628,0.005790
2035.1265,0.005853
2036.9901,0.006416
2038.8538,0.007093
2040.7175,0.006412
2042.5811,0.007743
2044.4448,0.009344
2046.3085,0.010231
2048.1721,0.009858
2050.0358,0.010748
2051.8995,0.010912
2053.7631,0.010863
2055.6268,0.011706
2057.4905,0.012421
2059.3542,0.011950
2061.2178,0.011484
2063.0815,0.011739
2064.9452,0.012106
2066.8088,0.011693
2068.6725,0.012357
2070.5362,0.013319
2072.3998,0.013303
2074.2635,0.012728
2076.1272,0.013061
2077.9908,0.013244
2079.8545,0.012947
2081.7182,0.013154
2083.5819,0.014133
2085.4455,0.014305
2087.3092,0.014059
2089.1729,0.013580
2091.0365,0.013538
2092.9002,0.014006
2094.7639,0.014133
2096.6275,0.013815
2098.4912,0.014029
2100.3549,0.014512
2102.2185,0.014999
2104.0822,0.014856
2105.9459,0.014486
2107.8095,0.014383
2109.6732,0.014599
2111.5369,0.014471
2113.4006,0.014559
2115.2642,0.014876
2117.1279,0.015025
2118.9916,0.014616
2120.8552,0.014626
2122.7189,0.014903
2124.5826,0.015191
2126.4462,0.014955
2128.3099,0.014156
2130.1736,0.013391
2132.0372,0.012778
2133.9009,0.012097
2135.7646,0.012354
2137.6282,0.013081
2139.4919,0.012627
2141.3556,0.012042
2143.2193,0.012086
2145.0829,0.011603
2146.9466,0.011022
2148.8103,0.009856
2150.6739,0.008913
2152.5376,0.008526
2154.4013,0.008736
2156.2649,0.007830
2158.1286,0.006954
2159.9923,0.005998
2161.8559,0.006639
2163.7196,0.007549
2165.5833,0.008924
2167.4470,0.009450
2169.3106,0.010365
2171.1743,0.010496
2173.0380,0.009637
2174.9016,0.009687
2176.7653,0.011139
2178.6290,0.010275
2180.4926,0.009426
2182.3563,0.010407
2184.2200,0.012031
2186.0836,0.011957
2187.9473,0.012237
2189.8110,0.012594
2191.6746,0.011733
2193.5383,0.011421
2195.4020,0.012426
2197.2657,0.012923
2199.1293,0.013502
2200.9930,0.013320
2202.8567,0.013223
2204.7203,0.013658
2206.5840,0.014484
2208.4477,0.014189
2210.3113,0.014894
2212.1750,0.015173
2214.0387,0.014896
2215.9023,0.014733
2217.7660,0.014088
2219.6297,0.013812
2221.4934,0.014666
2223.3570,0.014687
2225.2207,0.015058
2227.0844,0.016065
2228.9480,0.016128
2230.8117,0.015049
2232.6754,0.015216
2234.5390,0.016345
2236.4027,0.016791
2238.2664,0.016342
2240.1300,0.016313
2241.9937,0.016921
2243.8574,0.017537
2245.7210,0.017327
2247.5847,0.017119
2249.4484,0.017350
2251.3121,0.017184
2253.1757,0.016877
2255.0394,0.017404
2256.9031,0.017748
2258.7667,0.018034
2260.6304,0.018250
2262.4941,0.017850
2264.3577,0.017810
2266.2214,0.018521
2268.0851,0.018767
2269.9487,0.019328
2271.8124,0.019715
2273.6761,0.020073
2275.5397,0.020002
2277.4034,0.019860
2279.2671,0.020230
2281.1308,0.020772
2282.9944,0.021450
2284.8581,0.021980
2286.7218,0.022098
2288.5854,0.022037
2290.4491,0.021734
2292.3128,0.021182
2294.1764,0.021033
2296.0401,0.021398
2297.9038,0.021716
2299.7674,0.021681
2301.6311,0.021608
2303.4948,0.021946
2305.3585,0.022064
2307.2221,0.021879
2309.0858,0.021763
2310.9495,0.021751
2312.8131,0.021979
2314.6768,0.021925
2316.5405,0.021632
2318.4041,0.021868
2320.2678,0.022074
2322.1315,0.022121
2323.9951,0.022187
2325.8588,0.021888
2327.7225,0.021034
2329.5861,0.020890
2331.4498,0.021150
2333.3135,0.021099
2335.1772,0.020816
2337.0408,0.020898
2338.9045,0.020703
2340.7682,0.020611
2342.6318,0.021208
2344.4955,0.021597
2346.3592,0.021340
2348.2228,0.020970
2350.0865,0.020539
2351.9502,0.020572
2353.8138,0.021012
2355.6775,0.021108
2357.5412,0.020446
2359.4049,0.019748
2361.2685,0.019973
2363.1322,0.020120
2364.9959,0.020493
2366.8595,0.020897
2368.7232,0.020734
2370.5869,0.020997
2372.4505,0.021325
2374.3142,0.021712
2376.1779,0.021654
2378.0415,0.021410
2379.9052,0.021585
2381.7689,0.021687
2383.6325,0.021577
2385.4962,0.021695
2387.3599,0.021983
2389.2236,0.022145
2391.0872,0.021812
2392.9509,0.021594
2394.8146,0.021730
2396.6782,0.021981
2398.5419,0.022126
2400.4056,0.022217
2402.2692,0.022238
2404.1329,0.022061
2405.9966,0.021900
2407.8602,0.021956
2409.7239,0.022286
2411.5876,0.022474
2413.4512,0.022274
2415.3149,0.022372
2417.1786,0.022542
2419.0423,0.022632
2420.9059,0.022836
2422.7696,0.022951
2424.6333,0.023202
2426.4969,0.023296
2428.3606,0.023287
2430.2243,0.023295
2432.0879,0.023196
2433.9516,0.023067
2435.8153,0.022539
2437.6789,0.022608
2439.5426,0.023209
2441.4063,0.023074
2443.2700,0.022670
2445.1336,0.022853
2446.9973,0.023222
2448.8610,0.023299
2450.7246,0.023384
2452.5883,0.023491
2454.4520,0.023158
2456.3156,0.022864
2458.1793,0.023001
2460.0430,0.023231
2461.9066,0.023284
2463.7703,0.023095
2465.6340,0.022696
2467.4976,0.022674
2469.3613,0.022958
2471.2250,0.023059
2473.0887,0.023172
2474.9523,0.023411
2476.8160,0.023300
2478.6797,0.023097
2480.5433,0.023224
2482.4070,0.023397
2484.2707,0.023468
2486.1343,0.023369
2487.9980,0.023451
2489.8617,0.023562
2491.7253,0.023973
2493.5890,0.024196
2495.4527,0.023956
2497.3164,0.023824
2499.1800,0.023974
2501.0437,0.024004
2502.9074,0.024128
2504.7710,0.024650
2506.6347,0.024791
2508.4984,0.024485
2510.3620,0.024191
2512.2257,0.024462
2514.0894,0.024705
2515.9530,0.024962
2517.8167,0.024902
2519.6804,0.024377
2521.5440,0.024471
2523.4077,0.024857
2525.2714,0.025117
2527.1351,0.025009
