Wavenumber,Intensity
650.4205,0.248306
652.2841,0.245349
654.1478,0.243747
656.0115,0.240454
657.8751,0.236697
659.7388,0.233007
661.6025,0.232556
663.4661,0.231687
665.3298,0.229640
667.1935,0.232059
669.0571,0.234444
670.9208,0.227297
672.7845,0.222961
674.6481,0.221185
676.5118,0.221029
678.3755,0.219512
680.2392,0.217702
682.1028,0.216715
683.9665,0.217545
685.8302,0.217951
687.6938,0.217976
689.5575,0.216625
691.4212,0.216380
693.2848,0.216982
695.1485,0.218361
697.0122,0.220529
698.8758,0.223963
700.7395,0.226520
702.6032,0.227130
704.4669,0.223384
706.3305,0.215404
708.1942,0.204107
710.0579,0.193157
711.9215,0.182873
713.7852,0.173250
715.6489,0.164274
717.5125,0.156720
719.3762,0.150542
721.2399,0.144707
723.1035,0.139286
724.9672,0.134409
726.8309,0.129653
728.6945,0.125891
730.5582,0.123607
732.4219,0.121605
734.2856,0.117588
736.1492,0.112342
738.0129,0.109090
739.8766,0.109996
741.7402,0.113000
743.6039,0.114729
745.4676,0.114280
747.3312,0.113075
749.1949,0.111931
751.0586,0.111148
752.9222,0.109929
754.7859,0.108407
756.6496,0.107161
758.5132,0.106075
760.3769,0.105886
762.2406,0.106074
764.1043,0.105652
765.9679,0.105038
767.8316,0.104239
769.6953,0.103295
771.5589,0.102827
773.4226,0.102951
775.2863,0.103244
777.1499,0.104307
779.0136,0.106192
780.8773,0.108355
782.7409,0.110367
784.6046,0.112619
786.4683,0.114815
788.3320,0.116244
790.1956,0.117541
792.0593,0.119422
793.9230,0.121232
795.7866,0.123682
797.6503,0.126640
799.5140,0.129699
801.3776,0.132363
803.2413,0.133226
805.1050,0.131762
806.9686,0.128960
808.8323,0.126052
810.6960,0.123321
812.5596,0.120359
814.4233,0.117159
816.2870,0.113631
818.1507,0.110374
820.0143,0.107712
821.8780,0.105441
823.7417,0.103749
825.6053,0.103789
827.4690,0.106230
829.3327,0.107963
831.1963,0.102128
833.0600,0.088956
834.9237,0.077175
836.7873,0.070981
838.6510,0.068795
840.5147,0.068087
842.3784,0.067698
844.2420,0.067589
846.1057,0.067845
847.9694,0.068576
849.8330,0.069802
851.6967,0.071494
853.5604,0.073982
855.4240,0.076546
857.2877,0.077628
859.1514,0.075941
861.0150,0.072539
862.8787,0.069952
864.7424,0.068610
866.6060,0.067317
868.4697,0.065993
870.3334,0.065246
872.1971,0.064760
874.0607,0.064384
875.9244,0.064477
877.7881,0.064799
879.6517,0.065160
881.5154,0.065597
883.3791,0.066241
885.2427,0.066913
887.1064,0.067667
888.9701,0.068679
890.8337,0.069875
892.6974,0.071219
894.5611,0.072869
896.4247,0.074888
898.2884,0.077469
900.1521,0.080876
902.0158,0.085080
903.8794,0.089456
905.7431,0.093733
907.6068,0.098124
909.4704,0.103153
911.3341,0.109713
913.1978,0.117634
915.0614,0.121196
916.9251,0.111585
918.7888,0.092759
920.6524,0.078065
922.5161,0.071690
924.3798,0.070131
926.2435,0.070429
928.1071,0.071546
929.9708,0.073347
931.8345,0.075690
933.6981,0.078374
935.5618,0.080155
937.4255,0.079965
939.2891,0.078754
941.1528,0.078004
943.0165,0.078082
944.8801,0.078675
946.7438,0.079675
948.6075,0.081042
950.4711,0.082622
952.3348,0.084520
954.1985,0.086807
956.0622,0.089029
957.9258,0.090507
959.7895,0.091198
961.6532,0.092079
963.5168,0.093666
965.3805,0.095933
967.2442,0.099053
969.1078,0.102988
970.9715,0.107167
972.8352,0.111835
974.6988,0.119060
976.5625,0.131636
978.4262,0.152877
980.2899,0.181576
982.1535,0.193734
984.0172,0.164596
985.8809,0.124597
987.7445,0.105665
989.6082,0.102318
991.4719,0.103086
993.3355,0.105088
995.1992,0.108070
997.0629,0.111738
998.9265,0.115622
1000.7902,0.118815
1002.6539,0.121226
1004.5175,0.123960
1006.3812,0.127743
1008.2449,0.131667
1010.1086,0.134193
1011.9722,0.134849
1013.8359,0.133954
1015.6996,0.131897
1017.5632,0.129439
1019.4269,0.127449
1021.2906,0.126291
1023.1542,0.125813
1025.0179,0.125803
1026.8816,0.126108
1028.7452,0.126516
1030.6089,0.126313
1032.4726,0.125442
1034.3362,0.125177
1036.1999,0.126257
1038.0636,0.128338
1039.9273,0.131318
1041.7909,0.135324
1043.6546,0.140118
1045.5183,0.145158
1047.3819,0.149072
1049.2456,0.149157
1051.1093,0.142909
1052.9729,0.131838
1054.8366,0.121190
1056.7003,0.114139
1058.5639,0.110495
1060.4276,0.109207
1062.2913,0.108983
1064.1550,0.109183
1066.0186,0.110077
1067.8823,0.111635
1069.7460,0.113606
1071.6096,0.115902
1073.4733,0.118196
1075.3370,0.120238
1077.2006,0.122150
1079.0643,0.124186
1080.9280,0.126692
1082.7916,0.129755
1084.6553,0.133249
1086.5190,0.137173
1088.3826,0.141624
1090.2463,0.146821
1092.1100,0.152812
1093.9737,0.159515
1095.8373,0.167049
1097.7010,0.175517
1099.5647,0.184520
1101.4283,0.193331
1103.2920,0.200977
1105.1557,0.206229
1107.0193,0.207272
1108.8830,0.202296
1110.7467,0.191197
1112.6103,0.176206
1114.4740,0.160529
1116.3377,0.146409
1118.2014,0.134997
1120.0650,0.126770
1121.9287,0.121330
1123.7924,0.117721
1125.6560,0.114626
1127.5197,0.111165
1129.3834,0.107300
1131.2470,0.103495
1133.1107,0.100229
1134.9744,0.097649
1136.8380,0.095869
1138.7017,0.094782
1140.5654,0.094143
1142.4290,0.093823
1144.2927,0.093312
1146.1564,0.092073
1148.0201,0.090658
1149.8837,0.089944
1151.7474,0.090117
1153.6111,0.091013
1155.4747,0.092404
1157.3384,0.093665
1159.2021,0.093975
1161.0657,0.093659
1162.9294,0.094106
1164.7931,0.096024
1166.6567,0.099207
1168.5204,0.103386
1170.3841,0.107988
1172.2477,0.111339
1174.1114,0.111287
1175.9751,0.107161
1177.8388,0.101143
1179.7024,0.096306
1181.5661,0.093796
1183.4298,0.093213
1185.2934,0.093996
1187.1571,0.095412
1189.0208,0.096478
1190.8844,0.096175
1192.7481,0.094306
1194.6118,0.091952
1196.4754,0.090366
1198.3391,0.089735
1200.2028,0.089532
1202.0665,0.089307
1203.9301,0.088949
1205.7938,0.088580
1207.6575,0.088447
1209.5211,0.088594
1211.3848,0.088924
1213.2485,0.089339
1215.1121,0.089777
1216.9758,0.090343
1218.8395,0.091040
1220.7031,0.091797
1222.5668,0.092465
1224.4305,0.092847
1226.2941,0.092905
1228.1578,0.092897
1230.0215,0.093038
1231.8852,0.093326
1233.7488,0.093898
1235.6125,0.094801
1237.4762,0.095889
1239.3398,0.097025
1241.2035,0.097891
1243.0672,0.098149
1244.9308,0.097999
1246.7945,0.098113
1248.6582,0.098706
1250.5218,0.099522
1252.3855,0.100456
1254.2492,0.101534
1256.1129,0.102684
1257.9765,0.103785
1259.8402,0.105113
1261.7039,0.106754
1263.5675,0.108439
1265.4312,0.109751
1267.2949,0.110156
1269.1585,0.109974
1271.0222,0.109922
1272.8859,0.110151
1274.7495,0.110806
1276.6132,0.112174
1278.4769,0.114206
1280.3405,0.116939
1282.2042,0.120354
1284.0679,0.124019
1285.9316,0.127315
1287.7952,0.129739
1289.6589,0.131988
1291.5226,0.135073
1293.3862,0.138961
1295.2499,0.144142
1297.1136,0.151350
1298.9772,0.160685
1300.8409,0.172381
1302.7046,0.185113
1304.5682,0.194374
1306.4319,0.194103
1308.2956,0.179446
1310.1592,0.153126
1312.0229,0.126907
1313.8866,0.110058
1315.7503,0.103760
1317.6139,0.103822
1319.4776,0.106630
1321.3413,0.109578
1323.2049,0.112195
1325.0686,0.115235
1326.9323,0.118409
1328.7959,0.121452
1330.6596,0.124329
1332.5233,0.126358
1334.3869,0.127084
1336.2506,0.128041
1338.1143,0.131317
1339.9780,0.135075
1341.8416,0.134244
1343.7053,0.131354
1345.5690,0.130503
1347.4326,0.131892
1349.2963,0.134503
1351.1600,0.136778
1353.0236,0.138521
1354.8873,0.141048
1356.7510,0.144204
1358.6146,0.147281
1360.4783,0.150900
1362.3420,0.155814
1364.2056,0.158767
1366.0693,0.159618
1367.9330,0.163438
1369.7967,0.168711
1371.6603,0.172858
1373.5240,0.179888
1375.3877,0.188351
1377.2513,0.193276
1379.1150,0.199363
1380.9787,0.207056
1382.8423,0.214443
1384.7060,0.222854
1386.5697,0.235513
1388.4333,0.250067
1390.2970,0.256404
1392.1607,0.259153
1394.0244,0.261017
1395.8880,0.255635
1397.7517,0.244226
1399.6154,0.231691
1401.4790,0.219327
1403.3427,0.208951
1405.2064,0.194056
1407.0700,0.172243
1408.9337,0.150272
1410.7974,0.130432
1412.6610,0.116581
1414.5247,0.110404
1416.3884,0.110736
1418.2520,0.118516
1420.1157,0.130672
1421.9794,0.134457
1423.8431,0.130381
1425.7067,0.117262
1427.5704,0.103088
1429.4341,0.093827
1431.2977,0.089292
1433.1614,0.088228
1435.0251,0.090461
1436.8887,0.097138
1438.7524,0.100616
1440.6161,0.100691
1442.4797,0.102547
1444.3434,0.104936
1446.2071,0.107592
1448.0707,0.110294
1449.9344,0.109494
1451.7981,0.105542
1453.6618,0.101375
1455.5254,0.101377
1457.3891,0.110494
1459.2528,0.114444
1461.1164,0.112593
1462.9801,0.113456
1464.8438,0.115315
1466.7074,0.112912
1468.5711,0.108630
1470.4348,0.106995
1472.2984,0.109194
1474.1621,0.110973
1476.0258,0.109532
1477.8895,0.108568
1479.7531,0.108639
1481.6168,0.110597
1483.4805,0.112015
1485.3441,0.112817
1487.2078,0.115238
1489.0715,0.119690
1490.9351,0.122571
1492.7988,0.120659
1494.6625,0.120213
1496.5261,0.124714
1498.3898,0.128584
1500.2535,0.127410
1502.1171,0.124281
1503.9808,0.121832
1505.8445,0.124805
1507.7082,0.134639
1509.5718,0.130524
1511.4355,0.127300
1513.2992,0.126593
1515.1628,0.127249
1517.0265,0.130090
1518.8902,0.131843
1520.7538,0.135172
1522.6175,0.141560
1524.4812,0.141850
1526.3448,0.143713
1528.2085,0.144716
1530.0722,0.143009
1531.9359,0.143552
1533.7995,0.146858
1535.6632,0.145128
1537.5269,0.143213
1539.3905,0.150213
1541.2542,0.163621
1543.1179,0.163487
1544.9815,0.164036
1546.8452,0.163818
1548.7089,0.164234
1550.5725,0.167000
1552.4362,0.168155
1554.2999,0.169038
1556.1635,0.171555
1558.0272,0.181781
1559.8909,0.204977
1561.7546,0.195683
1563.6182,0.192080
1565.4819,0.195459
1567.3456,0.199862
1569.2092,0.207508
1571.0729,0.214814
1572.9366,0.214918
1574.8002,0.220511
1576.6639,0.234137
1578.5276,0.238313
1580.3912,0.237846
1582.2549,0.241265
1584.1186,0.244688
1585.9822,0.247438
1587.8459,0.249349
1589.7096,0.250531
1591.5733,0.250748
1593.4369,0.250407
1595.3006,0.249153
1597.1643,0.246326
1599.0279,0.242407
1600.8916,0.238424
1602.7553,0.234107
1604.6189,0.229584
1606.4826,0.225679
1608.3463,0.222941
1610.2099,0.220102
1612.0736,0.215956
1613.9373,0.211801
1615.8010,0.208745
1617.6646,0.202035
1619.5283,0.191846
1621.3920,0.184822
1623.2556,0.176844
1625.1193,0.165837
1626.9830,0.155397
1628.8466,0.142813
1630.7103,0.129621
1632.5740,0.119071
1634.4376,0.109394
1636.3013,0.098152
1638.1650,0.090675
1640.0286,0.088452
1641.8923,0.086621
1643.7560,0.085895
1645.6197,0.086493
1647.4833,0.088226
1649.3470,0.088210
1651.2107,0.089877
1653.0743,0.097596
1654.9380,0.103294
1656.8017,0.100662
1658.6653,0.101027
1660.5290,0.101973
1662.3927,0.102222
1664.2563,0.100311
1666.1200,0.097833
1667.9837,0.096596
1669.8474,0.095856
1671.7110,0.094211
1673.5747,0.094607
1675.4384,0.098042
1677.3020,0.101539
1679.1657,0.103772
1681.0294,0.108536
1682.8930,0.114938
1684.7567,0.124357
1686.6204,0.124770
1688.4840,0.122071
1690.3477,0.119645
1692.2114,0.115596
1694.0750,0.111795
1695.9387,0.107752
1697.8024,0.101648
1699.6661,0.097737
1701.5297,0.089031
1703.3934,0.080517
1705.2571,0.071509
1707.1207,0.059647
1708.9844,0.051525
1710.8481,0.045808
1712.7117,0.041082
1714.5754,0.038027
1716.4391,0.035511
1718.3027,0.033762
1720.1664,0.031912
1722.0301,0.030713
1723.8937,0.028830
1725.7574,0.026473
1727.6211,0.024217
1729.4848,0.022181
1731.3484,0.020347
1733.2121,0.019360
1735.0758,0.017730
1736.9394,0.016829
1738.8031,0.016554
1740.6668,0.016239
1742.5304,0.015873
1744.3941,0.015687
1746.2578,0.015240
1748.1214,0.015118
1749.9851,0.014671
1751.8488,0.014185
1753.7125,0.013905
1755.5761,0.014174
1757.4398,0.014102
1759.3035,0.013766
1761.1671,0.013506
1763.0308,0.013353
1764.8945,0.012975
1766.7581,0.012922
1768.6218,0.012674
1770.4855,0.012464
1772.3491,0.012346
1774.2128,0.012251
1776.0765,0.012084
1777.9401,0.012271
1779.8038,0.012434
1781.6675,0.012515
1783.5312,0.012376
1785.3948,0.012464
1787.2585,0.012320
1789.1222,0.012336
1790.9858,0.012365
1792.8495,0.012384
1794.7132,0.012084
1796.5768,0.012244
1798.4405,0.012265
1800.3042,0.012293
1802.1678,0.012264
1804.0315,0.012510
1805.8952,0.012624
1807.7589,0.012684
1809.6225,0.012511
1811.4862,0.012544
1813.3499,0.012549
1815.2135,0.012596
1817.0772,0.012314
1818.9409,0.012304
1820.8045,0.012412
1822.6682,0.012575
1824.5319,0.012550
1826.3955,0.012234
1828.2592,0.011853
1830.1229,0.012051
1831.9865,0.012012
1833.8502,0.011928
1835.7139,0.011671
1837.5776,0.011665
1839.4412,0.011733
1841.3049,0.011938
1843.1686,0.012195
1845.0322,0.012547
1846.8959,0.011911
1848.7596,0.011813
1850.6232,0.012093
1852.4869,0.012302
1854.3506,0.012160
1856.2142,0.012348
1858.0779,0.012605
1859.9416,0.012695
1861.8052,0.012347
1863.6689,0.012267
1865.5326,0.012228
1867.3963,0.012319
1869.2599,0.012170
1871.1236,0.011941
1872.9873,0.011779
1874.8509,0.012115
1876.7146,0.012182
1878.5783,0.012126
1880.4419,0.011984
1882.3056,0.012271
1884.1693,0.012258
1886.0329,0.012215
1887.8966,0.012090
1889.7603,0.012227
1891.6240,0.012129
1893.4876,0.012094
1895.3513,0.011968
1897.2150,0.011923
1899.0786,0.011848
1900.9423,0.012190
1902.8060,0.012219
1904.6696,0.012211
1906.5333,0.012049
1908.3970,0.012314
1910.2606,0.012424
1912.1243,0.012391
1913.9880,0.012204
1915.8516,0.012188
1917.7153,0.011736
1919.5790,0.012011
1921.4427,0.012353
1923.3063,0.012238
1925.1700,0.011687
1927.0337,0.011658
1928.8973,0.011325
1930.7610,0.011640
1932.6247,0.011732
1934.4883,0.012058
1936.3520,0.012040
1938.2157,0.012200
1940.0793,0.012113
1941.9430,0.011481
1943.8067,0.009904
1945.6704,0.010297
1947.5340,0.010431
1949.3977,0.010109
1951.2614,0.010136
1953.1250,0.010724
1954.9887,0.010428
1956.8524,0.010157
1958.7160,0.008857
1960.5797,0.008082
1962.4434,0.008189
1964.3070,0.007637
1966.1707,0.005422
1968.0344,0.004181
1969.8980,0.003277
1971.7617,0.003643
1973.6254,0.003878
1975.4891,0.004460
1977.3527,0.005060
1979.2164,0.007105
1981.0801,0.007143
1982.9437,0.006838
1984.8074,0.007551
1986.6711,0.008583
1988.5347,0.008548
1990.3984,0.008384
1992.2621,0.007620
1994.1257,0.008022
1995.9894,0.008550
1997.8531,0.008792
1999.7167,0.009042
2001.5804,0.008554
2003.4441,0.006485
2005.3078,0.006719
2007.1714,0.006476
2009.0351,0.006377
2010.8988,0.006057
2012.7624,0.006021
2014.6261,0.004859
2016.4898,0.005050
2018.3534,0.005153
2020.2171,0.005658
2022.0808,0.005206
2023.9444,0.005654
2025.8081,0.004901
2027.6718,0.005563
2029.5355,0.005858
2031.3991,0.006184
2033.2628,0.005362
2035.1265,0.005297
2036.9901,0.006013
2038.8538,0.007091
2040.7175,0.007075
2042.5811,0.007708
2044.4448,0.007962
2046.3085,0.009420
2048.1721,0.010343
2050.0358,0.011148
2051.8995,0.011338
2053.7631,0.010901
2055.6268,0.010698
2057.4905,0.012100
2059.3542,0.012514
2061.2178,0.013075
2063.0815,0.013120
2064.9452,0.013311
2066.8088,0.013552
2068.6725,0.014148
2070.5362,0.014092
2072.3998,0.014321
2074.2635,0.014393
2076.1272,0.014607
2077.9908,0.014999
2079.8545,0.015845
2081.7182,0.015506
2083.5819,0.015445
2085.4455,0.015684
2087.3092,0.015907
2089.1729,0.016130
2091.0365,0.016754
2092.9002,0.016632
2094.7639,0.016207
2096.6275,0.015972
2098.4912,0.016198
2100.3549,0.016268
2102.2185,0.016580
2104.0822,0.016720
2105.9459,0.016652
2107.8095,0.016223
2109.6732,0.016429
2111.5369,0.016839
2113.4006,0.017381
2115.2642,0.017192
2117.1279,0.016676
2118.9916,0.016400
2120.8552,0.016641
2122.7189,0.016903
2124.5826,0.017268
2126.4462,0.016943
2128.3099,0.017024
2130.1736,0.015842
2132.0372,0.014892
2133.9009,0.014293
2135.7646,0.014048
2137.6282,0.014184
2139.4919,0.013858
2141.3556,0.012688
2143.2193,0.012401
2145.0829,0.011671
2146.9466,0.011354
2148.8103,0.010710
2150.6739,0.009585
2152.5376,0.008966
2154.4013,0.008418
2156.2649,0.006480
2158.1286,0.005485
2159.9923,0.004974
2161.8559,0.006626
2163.7196,0.006704
2165.5833,0.007238
2167.4470,0.008244
2169.3106,0.008689
2171.1743,0.009110
2173.0380,0.010260
2174.9016,0.009804
2176.7653,0.010206
2178.6290,0.010724
2180.4926,0.010405
2182.3563,0.009786
2184.2200,0.010786
2186.0836,0.010796
2187.9473,0.011474
2189.8110,0.012217
2191.6746,0.012272
2193.5383,0.011637
2195.4020,0.012604
2197.2657,0.013104
2199.1293,0.013733
2200.9930,0.013639
2202.8567,0.014106
2204.7203,0.014097
2206.5840,0.014524
2208.4477,0.015204
2210.3113,0.016244
2212.1750,0.015491
2214.0387,0.014716
2215.9023,0.015306
2217.7660,0.015520
2219.6297,0.015544
2221.4934,0.016013
2223.3570,0.015974
2225.2207,0.016563
2227.0844,0.016411
2228.9480,0.016885
2230.8117,0.016741
2232.6754,0.016487
2234.5390,0.017147
2236.4027,0.018794
2238.2664,0.019025
2240.1300,0.018784
2241.9937,0.018561
2243.8574,0.018705
2245.7210,0.018595
2247.5847,0.018474
2249.4484,0.018724
2251.3121,0.019835
2253.1757,0.019943
2255.0394,0.019722
2256.9031,0.019810
2258.7667,0.020400
2260.6304,0.020946
2262.4941,0.020360
2264.3577,0.020234
2266.2214,0.021420
2268.0851,0.021985
2269.9487,0.021953
2271.8124,0.022267
2273.6761,0.023283
2275.5397,0.023704
2277.4034,0.023292
2279.2671,0.023428
2281.1308,0.024662
2282.9944,0.025231
2284.8581,0.025192
2286.7218,0.025009
2288.5854,0.024819
2290.4491,0.025164
2292.3128,0.025209
2294.1764,0.024985
2296.0401,0.025238
2297.9038,0.025508
2299.7674,0.025826
2301.6311,0.025957
2303.4948,0.025968
2305.3585,0.025793
2307.2221,0.026158
2309.0858,0.026451
2310.9495,0.026256
2312.8131,0.026043
2314.6768,0.026142
2316.5405,0.025975
2318.4041,0.025799
2320.2678,0.026151
2322.1315,0.026687
2323.9951,0.026555
2325.8588,0.026025
2327.7225,0.025307
2329.5861,0.025045
2331.4498,0.025150
2333.3135,0.025157
2335.1772,0.025032
2337.0408,0.024998
2338.9045,0.024988
2340.7682,0.025295
2342.6318,0.025536
2344.4955,0.025662
2346.3592,0.025328
2348.2228,0.024887
2350.0865,0.024546
2351.9502,0.024468
2353.8138,0.024648
2355.6775,0.024927
2357.5412,0.024754
2359.4049,0.024612
2361.2685,0.024699
2363.1322,0.024872
2364.9959,0.024850
2366.8595,0.025229
2368.7232,0.025584
2370.5869,0.025976
2372.4505,0.026229
2374.3142,0.026434
2376.1779,0.026578
2378.0415,0.026566
2379.9052,0.026658
2381.7689,0.026816
2383.6325,0.026607
2385.4962,0.026582
2387.3599,0.026684
2389.2236,0.026733
2391.0872,0.026770
2392.9509,0.026824
2394.8146,0.026893
2396.6782,0.027030
2398.5419,0.027146
2400.4056,0.027368
2402.2692,0.027601
2404.1329,0.027630
2405.9966,0.027892
2407.8602,0.027900
2409.7239,0.027774
2411.5876,0.027832
2413.4512,0.027958
2415.3149,0.028290
2417.1786,0.028278
2419.0423,0.028436
2420.9059,0.028686
2422.7696,0.028739
2424.6333,0.029034
2426.4969,0.029554
2428.3606,0.029479
2430.2243,0.029500
2432.0879,0.029619
2433.9516,0.029706
2435.8153,0.029777
2437.6789,0.029810
2439.5426,0.029810
2441.4063,0.029756
2443.2700,0.029594
2445.1336,0.029351
2446.9973,0.029256
2448.8610,0.029553
2450.7246,0.029623
2452.5883,0.029631
2454.4520,0.029985
2456.3156,0.030104
2458.1793,0.029799
2460.0430,0.029518
2461.9066,0.029589
2463.7703,0.029882
2465.6340,0.029731
2467.4976,0.029839
2469.3613,0.030155
2471.2250,0.030149
2473.0887,0.030075
2474.9523,0.030306
2476.8160,0.030551
2478.6797,0.030840
2480.5433,0.031080
2482.4070,0.031526
2484.2707,0.031893
2486.1343,0.032166
2487.9980,0.032043
2489.8617,0.031929
2491.7253,0.031993
2493.5890,0.032060
2495.4527,0.032335
2497.3164,0.032613
2499.1800,0.032628
2501.0437,0.032505
2502.9074,0.032284
2504.7710,0.032722
2506.6347,0.032717
2508.4984,0.032614
2510.3620,0.033132
2512.2257,0.033729
2514.0894,0.033532
2515.9530,0.033225
2517.8167,0.033795
2519.6804,0.034161
2521.5440,0.034251
2523.4077,0.034641
2525.2714,0.034741
2527.1351,0.034870
