Wavenumber,Intensity
650.4205,0.207715
652.2841,0.207262
654.1478,0.205981
656.0115,0.200748
657.8751,0.197598
659.7388,0.197797
661.6025,0.200276
663.4661,0.200520
665.3298,0.200795
667.1935,0.202856
669.0571,0.202491
670.9208,0.197028
672.7845,0.195515
674.6481,0.193239
676.5118,0.191440
678.3755,0.189852
680.2392,0.188365
682.1028,0.186270
683.9665,0.183319
685.8302,0.182040
687.6938,0.182061
689.5575,0.180933
691.4212,0.180160
693.2848,0.178691
695.1485,0.178385
697.0122,0.180602
698.8758,0.182148
700.7395,0.180464
702.6032,0.179409
704.4669,0.177452
706.3305,0.173018
708.1942,0.165894
710.0579,0.157479
711.9215,0.148887
713.7852,0.141274
715.6489,0.134566
717.5125,0.128471
719.3762,0.122563
721.2399,0.117118
723.1035,0.112791
724.9672,0.108885
726.8309,0.104946
728.6945,0.101873
730.5582,0.098896
732.4219,0.095297
734.2856,0.091277
736.1492,0.088096
738.0129,0.086782
739.8766,0.087476
741.7402,0.090122
743.6039,0.093031
745.4676,0.093781
747.3312,0.092976
749.1949,0.092198
751.0586,0.091057
752.9222,0.089828
754.7859,0.089409
756.6496,0.089058
758.5132,0.088300
760.3769,0.087601
762.2406,0.087173
764.1043,0.086916
765.9679,0.086522
767.8316,0.085919
769.6953,0.085834
771.5589,0.086624
773.4226,0.087215
775.2863,0.087469
777.1499,0.088393
779.0136,0.089433
780.8773,0.090466
782.7409,0.091770
784.6046,0.093578
786.4683,0.095789
788.3320,0.097507
790.1956,0.098794
792.0593,0.100714
793.9230,0.102954
795.7866,0.104985
797.6503,0.106880
799.5140,0.108484
801.3776,0.109781
803.2413,0.110626
805.1050,0.110149
806.9686,0.108923
808.8323,0.106991
810.6960,0.104702
812.5596,0.102150
814.4233,0.099083
816.2870,0.095815
818.1507,0.092990
820.0143,0.090633
821.8780,0.088924
823.7417,0.088210
825.6053,0.088789
827.4690,0.090644
829.3327,0.091702
831.1963,0.086389
833.0600,0.074935
834.9237,0.064969
836.7873,0.060041
838.6510,0.058375
840.5147,0.057732
842.3784,0.057470
844.2420,0.057462
846.1057,0.057348
847.9694,0.057246
849.8330,0.057334
851.6967,0.057656
853.5604,0.058210
855.4240,0.058860
857.2877,0.059245
859.1514,0.058968
861.0150,0.058456
862.8787,0.058261
864.7424,0.058148
866.6060,0.058088
868.4697,0.058158
870.3334,0.058231
872.1971,0.058597
874.0607,0.059028
875.9244,0.059348
877.7881,0.059806
879.6517,0.060335
881.5154,0.060740
883.3791,0.061395
885.2427,0.062091
887.1064,0.062542
888.9701,0.063282
890.8337,0.064333
892.6974,0.065370
894.5611,0.066355
896.4247,0.067520
898.2884,0.069019
900.1521,0.071044
902.0158,0.073733
903.8794,0.076974
905.7431,0.080913
907.6068,0.085574
909.4704,0.090837
911.3341,0.096986
913.1978,0.104177
915.0614,0.107800
916.9251,0.100480
918.7888,0.085360
920.6524,0.073194
922.5161,0.067725
924.3798,0.066403
926.2435,0.066637
928.1071,0.067355
929.9708,0.068458
931.8345,0.069800
933.6981,0.071183
935.5618,0.072430
937.4255,0.073411
939.2891,0.074265
941.1528,0.075115
943.0165,0.076052
944.8801,0.077247
946.7438,0.078600
948.6075,0.079940
950.4711,0.081256
952.3348,0.082813
954.1985,0.084576
956.0622,0.086257
957.9258,0.087822
959.7895,0.089400
961.6532,0.091064
963.5168,0.092955
965.3805,0.095241
967.2442,0.097971
969.1078,0.101153
970.9715,0.104526
972.8352,0.108576
974.6988,0.114832
976.5625,0.124928
978.4262,0.141525
980.2899,0.163611
982.1535,0.171833
984.0172,0.147749
985.8809,0.116150
987.7445,0.101965
989.6082,0.100122
991.4719,0.101558
993.3355,0.103749
995.1992,0.106070
997.0629,0.108600
998.9265,0.111219
1000.7902,0.113679
1002.6539,0.115999
1004.5175,0.118180
1006.3812,0.120305
1008.2449,0.122349
1010.1086,0.123770
1011.9722,0.124135
1013.8359,0.123666
1015.6996,0.122864
1017.5632,0.121773
1019.4269,0.120551
1021.2906,0.119411
1023.1542,0.118250
1025.0179,0.117249
1026.8816,0.116543
1028.7452,0.116195
1030.6089,0.115978
1032.4726,0.115622
1034.3362,0.115557
1036.1999,0.115961
1038.0636,0.116648
1039.9273,0.117787
1041.7909,0.119417
1043.6546,0.121221
1045.5183,0.123020
1047.3819,0.123970
1049.2456,0.122133
1051.1093,0.115948
1052.9729,0.106644
1054.8366,0.097874
1056.7003,0.092211
1058.5639,0.089481
1060.4276,0.088501
1062.2913,0.088323
1064.1550,0.088398
1066.0186,0.088915
1067.8823,0.089901
1069.7460,0.091126
1071.6096,0.092560
1073.4733,0.094127
1075.3370,0.095672
1077.2006,0.097265
1079.0643,0.099092
1080.9280,0.101126
1082.7916,0.103347
1084.6553,0.105855
1086.5190,0.108637
1088.3826,0.111749
1090.2463,0.115303
1092.1100,0.119381
1093.9737,0.123945
1095.8373,0.128907
1097.7010,0.134356
1099.5647,0.140313
1101.4283,0.146363
1103.2920,0.151735
1105.1557,0.155555
1107.0193,0.156138
1108.8830,0.151893
1110.7467,0.143104
1112.6103,0.131566
1114.4740,0.119366
1116.3377,0.108124
1118.2014,0.098722
1120.0650,0.091611
1121.9287,0.086742
1123.7924,0.083537
1125.6560,0.081104
1127.5197,0.078800
1129.3834,0.076458
1131.2470,0.074065
1133.1107,0.071889
1134.9744,0.070183
1136.8380,0.068937
1138.7017,0.068156
1140.5654,0.067731
1142.4290,0.067536
1144.2927,0.067478
1146.1564,0.067362
1148.0201,0.067264
1149.8837,0.067350
1151.7474,0.067644
1153.6111,0.068188
1155.4747,0.068951
1157.3384,0.069796
1159.2021,0.070669
1161.0657,0.071666
1162.9294,0.073036
1164.7931,0.075079
1166.6567,0.077925
1168.5204,0.081516
1170.3841,0.085354
1172.2477,0.088118
1174.1114,0.088038
1175.9751,0.084540
1177.8388,0.079429
1179.7024,0.075048
1181.5661,0.072471
1183.4298,0.071451
1185.2934,0.071283
1187.1571,0.071466
1189.0208,0.071626
1190.8844,0.071529
1192.7481,0.071139
1194.6118,0.070597
1196.4754,0.070243
1198.3391,0.070226
1200.2028,0.070409
1202.0665,0.070614
1203.9301,0.070756
1205.7938,0.070959
1207.6575,0.071275
1209.5211,0.071588
1211.3848,0.071895
1213.2485,0.072291
1215.1121,0.072736
1216.9758,0.073117
1218.8395,0.073477
1220.7031,0.073921
1222.5668,0.074445
1224.4305,0.074894
1226.2941,0.075261
1228.1578,0.075619
1230.0215,0.075973
1231.8852,0.076407
1233.7488,0.076907
1235.6125,0.077353
1237.4762,0.077826
1239.3398,0.078467
1241.2035,0.079097
1243.0672,0.079567
1244.9308,0.080061
1246.7945,0.080626
1248.6582,0.081188
1250.5218,0.081854
1252.3855,0.082681
1254.2492,0.083487
1256.1129,0.084241
1257.9765,0.085140
1259.8402,0.086220
1261.7039,0.087354
1263.5675,0.088477
1265.4312,0.089470
1267.2949,0.089991
1269.1585,0.090029
1271.0222,0.090000
1272.8859,0.090151
1274.7495,0.090565
1276.6132,0.091344
1278.4769,0.092488
1280.3405,0.093940
1282.2042,0.095683
1284.0679,0.097703
1285.9316,0.099953
1287.7952,0.102396
1289.6589,0.104979
1291.5226,0.107914
1293.3862,0.111461
1295.2499,0.115659
1297.1136,0.120672
1298.9772,0.126838
1300.8409,0.134398
1302.7046,0.142460
1304.5682,0.148234
1306.4319,0.147766
1308.2956,0.137337
1310.1592,0.117828
1312.0229,0.097215
1313.8866,0.082959
1315.7503,0.076932
1317.6139,0.076234
1319.4776,0.077955
1321.3413,0.080380
1323.2049,0.082891
1325.0686,0.085670
1326.9323,0.088621
1328.7959,0.091439
1330.6596,0.094015
1332.5233,0.096150
1334.3869,0.097479
1336.2506,0.098380
1338.1143,0.100088
1339.9780,0.102436
1341.8416,0.103167
1343.7053,0.102903
1345.5690,0.103247
1347.4326,0.104228
1349.2963,0.105730
1351.1600,0.107339
1353.0236,0.109003
1354.8873,0.111238
1356.7510,0.113646
1358.6146,0.115750
1360.4783,0.118531
1362.3420,0.123038
1364.2056,0.126962
1366.0693,0.129009
1367.9330,0.132244
1369.7967,0.136125
1371.6603,0.139178
1373.5240,0.143673
1375.3877,0.148963
1377.2513,0.152507
1379.1150,0.156981
1380.9787,0.162613
1382.8423,0.168160
1384.7060,0.174195
1386.5697,0.182029
1388.4333,0.190325
1390.2970,0.194713
1392.1607,0.197357
1394.0244,0.198158
1395.8880,0.193235
1397.7517,0.185045
1399.6154,0.175459
1401.4790,0.166114
1403.3427,0.158420
1405.2064,0.146079
1407.0700,0.128552
1408.9337,0.111557
1410.7974,0.095749
1412.6610,0.084046
1414.5247,0.078262
1416.3884,0.077480
1418.2520,0.082104
1420.1157,0.091052
1421.9794,0.095732
1423.8431,0.094518
1425.7067,0.086223
1427.5704,0.076688
1429.4341,0.070380
1431.2977,0.067385
1433.1614,0.066847
1435.0251,0.068093
1436.8887,0.071660
1438.7524,0.074118
1440.6161,0.075044
1442.4797,0.076620
1444.3434,0.078127
1446.2071,0.079407
1448.0707,0.080131
1449.9344,0.078804
1451.7981,0.075978
1453.6618,0.072915
1455.5254,0.072210
1457.3891,0.076389
1459.2528,0.078617
1461.1164,0.078061
1462.9801,0.078792
1464.8438,0.080062
1466.7074,0.079049
1468.5711,0.076774
1470.4348,0.075735
1472.2984,0.076682
1474.1621,0.077835
1476.0258,0.077589
1477.8895,0.077470
1479.7531,0.077429
1481.6168,0.078058
1483.4805,0.078326
1485.3441,0.078427
1487.2078,0.079625
1489.0715,0.082169
1490.9351,0.084140
1492.7988,0.083741
1494.6625,0.083822
1496.5261,0.086292
1498.3898,0.088642
1500.2535,0.088854
1502.1171,0.088015
1503.9808,0.087451
1505.8445,0.089769
1507.7082,0.096075
1509.5718,0.095121
1511.4355,0.094514
1513.2992,0.095060
1515.1628,0.095941
1517.0265,0.097486
1518.8902,0.098696
1520.7538,0.100815
1522.6175,0.103959
1524.4812,0.104441
1526.3448,0.106001
1528.2085,0.107164
1530.0722,0.107266
1531.9359,0.108408
1533.7995,0.110688
1535.6632,0.110558
1537.5269,0.110468
1539.3905,0.114214
1541.2542,0.120404
1543.1179,0.121574
1544.9815,0.123247
1546.8452,0.124325
1548.7089,0.125593
1550.5725,0.128029
1552.4362,0.129528
1554.2999,0.130618
1556.1635,0.132910
1558.0272,0.138932
1559.8909,0.149887
1561.7546,0.146432
1563.6182,0.145894
1565.4819,0.148329
1567.3456,0.151353
1569.2092,0.155708
1571.0729,0.159317
1572.9366,0.160185
1574.8002,0.164087
1576.6639,0.170968
1578.5276,0.173110
1580.3912,0.174029
1582.2549,0.176798
1584.1186,0.179144
1585.9822,0.180881
1587.8459,0.181925
1589.7096,0.182357
1591.5733,0.182214
1593.4369,0.181773
1595.3006,0.180465
1597.1643,0.178272
1599.0279,0.175770
1600.8916,0.173265
1602.7553,0.170589
1604.6189,0.167881
1606.4826,0.165490
1608.3463,0.163172
1610.2099,0.160515
1612.0736,0.157444
1613.9373,0.154579
1615.8010,0.151593
1617.6646,0.144313
1619.5283,0.136717
1621.3920,0.132645
1623.2556,0.126807
1625.1193,0.118132
1626.9830,0.110730
1628.8466,0.101883
1630.7103,0.092370
1632.5740,0.085056
1634.4376,0.078449
1636.3013,0.069630
1638.1650,0.063080
1640.0286,0.061376
1641.8923,0.060164
1643.7560,0.060094
1645.6197,0.061176
1647.4833,0.063324
1649.3470,0.064891
1651.2107,0.067258
1653.0743,0.072066
1654.9380,0.075259
1656.8017,0.075278
1658.6653,0.076626
1660.5290,0.077432
1662.3927,0.077236
1664.2563,0.075721
1666.1200,0.074244
1667.9837,0.073049
1669.8474,0.071425
1671.7110,0.070203
1673.5747,0.071103
1675.4384,0.073435
1677.3020,0.076124
1679.1657,0.078806
1681.0294,0.083032
1682.8930,0.087686
1684.7567,0.092635
1686.6204,0.093526
1688.4840,0.093151
1690.3477,0.091708
1692.2114,0.089247
1694.0750,0.087249
1695.9387,0.084505
1697.8024,0.079683
1699.6661,0.076998
1701.5297,0.069737
1703.3934,0.063309
1705.2571,0.056832
1707.1207,0.047542
1708.9844,0.040994
1710.8481,0.036233
1712.7117,0.032326
1714.5754,0.029634
1716.4391,0.026930
1718.3027,0.025193
1720.1664,0.024331
1722.0301,0.023899
1723.8937,0.022473
1725.7574,0.020458
1727.6211,0.018588
1729.4848,0.016800
1731.3484,0.014977
1733.2121,0.013932
1735.0758,0.012417
1736.9394,0.011935
1738.8031,0.012020
1740.6668,0.011677
1742.5304,0.011232
1744.3941,0.011013
1746.2578,0.010544
1748.1214,0.010118
1749.9851,0.009554
1751.8488,0.009520
1753.7125,0.009553
1755.5761,0.009733
1757.4398,0.009636
1759.3035,0.009595
1761.1671,0.009444
1763.0308,0.009256
1764.8945,0.009298
1766.7581,0.009408
1768.6218,0.008990
1770.4855,0.008673
1772.3491,0.008551
1774.2128,0.008655
1776.0765,0.008739
1777.9401,0.008996
1779.8038,0.009168
1781.6675,0.009262
1783.5312,0.009293
1785.3948,0.009330
1787.2585,0.009196
1789.1222,0.009333
1790.9858,0.009210
1792.8495,0.008938
1794.7132,0.008820
1796.5768,0.009045
1798.4405,0.009208
1800.3042,0.009377
1802.1678,0.009307
1804.0315,0.009410
1805.8952,0.009668
1807.7589,0.009871
1809.6225,0.009855
1811.4862,0.009985
1813.3499,0.009876
1815.2135,0.009740
1817.0772,0.009569
1818.9409,0.009722
1820.8045,0.009870
1822.6682,0.009948
1824.5319,0.009684
1826.3955,0.009404
1828.2592,0.009119
1830.1229,0.009086
1831.9865,0.008949
1833.8502,0.009318
1835.7139,0.009608
1837.5776,0.009572
1839.4412,0.009341
1841.3049,0.009351
1843.1686,0.009357
1845.0322,0.009241
1846.8959,0.008866
1848.7596,0.009130
1850.6232,0.009277
1852.4869,0.009451
1854.3506,0.009454
1856.2142,0.009508
1858.0779,0.009542
1859.9416,0.009713
1861.8052,0.009647
1863.6689,0.009897
1865.5326,0.009762
1867.3963,0.009145
1869.2599,0.008641
1871.1236,0.009251
1872.9873,0.009816
1874.8509,0.009886
1876.7146,0.009743
1878.5783,0.009733
1880.4419,0.009572
1882.3056,0.009816
1884.1693,0.009852
1886.0329,0.009841
1887.8966,0.009620
1889.7603,0.009403
1891.6240,0.009193
1893.4876,0.009320
1895.3513,0.009307
1897.2150,0.009454
1899.0786,0.009683
1900.9423,0.009977
1902.8060,0.010025
1904.6696,0.010047
1906.5333,0.009923
1908.3970,0.010028
1910.2606,0.009704
1912.1243,0.009498
1913.9880,0.009353
1915.8516,0.009770
1917.7153,0.009813
1919.5790,0.009346
1921.4427,0.009170
1923.3063,0.009396
1925.1700,0.009296
1927.0337,0.009399
1928.8973,0.009477
1930.7610,0.009980
1932.6247,0.009657
1934.4883,0.009235
1936.3520,0.008914
1938.2157,0.008928
1940.0793,0.009178
1941.9430,0.009687
1943.8067,0.009093
1945.6704,0.008196
1947.5340,0.007322
1949.3977,0.007395
1951.2614,0.008224
1953.1250,0.008632
1954.9887,0.007719
1956.8524,0.007500
1958.7160,0.006577
1960.5797,0.005488
1962.4434,0.004746
1964.3070,0.004676
1966.1707,0.003863
1968.0344,0.003137
1969.8980,0.002578
1971.7617,0.003923
1973.6254,0.004732
1975.4891,0.004349
1977.3527,0.003157
1979.2164,0.004638
1981.0801,0.005640
1982.9437,0.005504
1984.8074,0.004874
1986.6711,0.005121
1988.5347,0.005533
1990.3984,0.005969
1992.2621,0.006016
1994.1257,0.006241
1995.9894,0.005538
1997.8531,0.006634
1999.7167,0.007520
2001.5804,0.007351
2003.4441,0.006300
2005.3078,0.005691
2007.1714,0.004854
2009.0351,0.004118
2010.8988,0.003868
2012.7624,0.004631
2014.6261,0.004039
2016.4898,0.003669
2018.3534,0.003658
2020.2171,0.003845
2022.0808,0.003150
2023.9444,0.003030
2025.8081,0.002036
2027.6718,0.003269
2029.5355,0.005235
2031.3991,0.005836
2033.2628,0.004825
2035.1265,0.004915
2036.9901,0.004581
2038.8538,0.004856
2040.7175,0.005914
2042.5811,0.007197
2044.4448,0.006573
2046.3085,0.006396
2048.1721,0.007102
2050.0358,0.008590
2051.8995,0.009916
2053.7631,0.010078
2055.6268,0.009666
2057.4905,0.009513
2059.3542,0.009807
2061.2178,0.010300
2063.0815,0.010919
2064.9452,0.011477
2066.8088,0.010480
2068.6725,0.010027
2070.5362,0.010581
2072.3998,0.011464
2074.2635,0.011636
2076.1272,0.011829
2077.9908,0.011285
2079.8545,0.012145
2081.7182,0.012845
2083.5819,0.012448
2085.4455,0.011694
2087.3092,0.011994
2089.1729,0.012946
2091.0365,0.013488
2092.9002,0.012869
2094.7639,0.012531
2096.6275,0.013017
2098.4912,0.013053
2100.3549,0.012651
2102.2185,0.012293
2104.0822,0.012485
2105.9459,0.012828
2107.8095,0.012440
2109.6732,0.012683
2111.5369,0.013612
2113.4006,0.013766
2115.2642,0.013252
2117.1279,0.013610
2118.9916,0.013635
2120.8552,0.013542
2122.7189,0.013128
2124.5826,0.013199
2126.4462,0.012692
2128.3099,0.012329
2130.1736,0.012580
2132.0372,0.012165
2133.9009,0.011800
2135.7646,0.012062
2137.6282,0.011124
2139.4919,0.010377
2141.3556,0.010540
2143.2193,0.010448
2145.0829,0.009440
2146.9466,0.009382
2148.8103,0.009439
2150.6739,0.008195
2152.5376,0.005926
2154.4013,0.005474
2156.2649,0.004775
2158.1286,0.004225
2159.9923,0.003578
2161.8559,0.004540
2163.7196,0.005968
2165.5833,0.007057
2167.4470,0.008054
2169.3106,0.009500
2171.1743,0.008780
2173.0380,0.008044
2174.9016,0.007534
2176.7653,0.008282
2178.6290,0.008700
2180.4926,0.009132
2182.3563,0.008713
2184.2200,0.008779
2186.0836,0.009154
2187.9473,0.009662
2189.8110,0.008956
2191.6746,0.008896
2193.5383,0.008889
2195.4020,0.009919
2197.2657,0.011652
2199.1293,0.012518
2200.9930,0.011558
2202.8567,0.011392
2204.7203,0.011794
2206.5840,0.012448
2208.4477,0.011839
2210.3113,0.012333
2212.1750,0.013007
2214.0387,0.013088
2215.9023,0.012945
2217.7660,0.013309
2219.6297,0.013030
2221.4934,0.012788
2223.3570,0.013692
2225.2207,0.014182
2227.0844,0.013643
2228.9480,0.013472
2230.8117,0.014211
2232.6754,0.015206
2234.5390,0.015244
2236.4027,0.014759
2238.2664,0.015076
2240.1300,0.015609
2241.9937,0.016037
2243.8574,0.016342
2245.7210,0.016429
2247.5847,0.016675
2249.4484,0.016142
2251.3121,0.016202
2253.1757,0.016309
2255.0394,0.016065
2256.9031,0.016373
2258.7667,0.016886
2260.6304,0.017098
2262.4941,0.017191
2264.3577,0.017281
2266.2214,0.017928
2268.0851,0.018092
2269.9487,0.017757
2271.8124,0.017839
2273.6761,0.018699
2275.5397,0.019322
2277.4034,0.019541
2279.2671,0.019565
2281.1308,0.020310
2282.9944,0.020949
2284.8581,0.021151
2286.7218,0.021133
2288.5854,0.021148
2290.4491,0.021167
2292.3128,0.020933
2294.1764,0.020819
2296.0401,0.021069
2297.9038,0.020898
2299.7674,0.021037
2301.6311,0.021381
2303.4948,0.021529
2305.3585,0.021511
2307.2221,0.021407
2309.0858,0.021479
2310.9495,0.021395
2312.8131,0.021118
2314.6768,0.021420
2316.5405,0.021923
2318.4041,0.021960
2320.2678,0.022125
2322.1315,0.022129
2323.9951,0.022421
2325.8588,0.022404
2327.7225,0.021465
2329.5861,0.021116
2331.4498,0.021296
2333.3135,0.020983
2335.1772,0.020697
2337.0408,0.020827
2338.9045,0.020898
2340.7682,0.021304
2342.6318,0.021444
2344.4955,0.021518
2346.3592,0.021339
2348.2228,0.021022
2350.0865,0.020676
2351.9502,0.020657
2353.8138,0.020750
2355.6775,0.020807
2357.5412,0.020947
2359.4049,0.021103
2361.2685,0.021163
2363.1322,0.021145
2364.9959,0.020985
2366.8595,0.021366
2368.7232,0.021924
2370.5869,0.022191
2372.4505,0.022285
2374.3142,0.021744
2376.1779,0.021571
2378.0415,0.021579
2379.9052,0.021259
2381.7689,0.021310
2383.6325,0.021383
2385.4962,0.021200
2387.3599,0.021109
2389.2236,0.021450
2391.0872,0.021642
2392.9509,0.021298
2394.8146,0.021328
2396.6782,0.021651
2398.5419,0.021707
2400.4056,0.021724
2402.2692,0.021873
2404.1329,0.021899
2405.9966,0.021936
2407.8602,0.021983
2409.7239,0.021959
2411.5876,0.021999
2413.4512,0.022043
2415.3149,0.022461
2417.1786,0.022486
2419.0423,0.022664
2420.9059,0.023002
2422.7696,0.022484
2424.6333,0.022342
2426.4969,0.022890
2428.3606,0.023124
2430.2243,0.023088
2432.0879,0.022943
2433.9516,0.023235
2435.8153,0.023280
2437.6789,0.023064
2439.5426,0.022940
2441.4063,0.022922
2443.2700,0.022904
2445.1336,0.022987
2446.9973,0.023180
2448.8610,0.023508
2450.7246,0.023492
2452.5883,0.023327
2454.4520,0.023034
2456.3156,0.022688
2458.1793,0.022696
2460.0430,0.022764
2461.9066,0.022913
2463.7703,0.022726
2465.6340,0.022801
2467.4976,0.022860
2469.3613,0.022881
2471.2250,0.022967
2473.0887,0.022886
2474.9523,0.022961
2476.8160,0.023218
2478.6797,0.023135
2480.5433,0.023197
2482.4070,0.023321
2484.2707,0.023425
2486.1343,0.023472
2487.9980,0.023756
2489.8617,0.024363
2491.7253,0.024152
2493.5890,0.023888
2495.4527,0.024150
2497.3164,0.024078
2499.1800,0.024287
2501.0437,0.024313
2502.9074,0.024326
2504.7710,0.024621
2506.6347,0.024826
2508.4984,0.024907
2510.3620,0.024936
2512.2257,0.025134
2514.0894,0.025001
2515.9530,0.025006
2517.8167,0.025170
2519.6804,0.024933
2521.5440,0.025358
2523.4077,0.025670
2525.2714,0.025357
2527.1351,0.025599
