Wavenumber,Intensity
650.4205,0.182310
652.2841,0.179796
654.1478,0.176206
656.0115,0.174735
657.8751,0.175163
659.7388,0.173071
661.6025,0.172470
663.4661,0.174219
665.3298,0.176550
667.1935,0.177790
669.0571,0.178037
670.9208,0.175096
672.7845,0.171693
674.6481,0.167398
676.5118,0.164999
678.3755,0.162240
680.2392,0.160638
682.1028,0.159432
683.9665,0.157693
685.8302,0.155038
687.6938,0.154213
689.5575,0.153652
691.4212,0.153096
693.2848,0.152588
695.1485,0.152094
697.0122,0.152137
698.8758,0.153109
700.7395,0.153680
702.6032,0.153614
704.4669,0.151603
706.3305,0.146776
708.1942,0.140083
710.0579,0.133986
711.9215,0.127590
713.7852,0.120418
715.6489,0.114253
717.5125,0.109016
719.3762,0.103890
721.2399,0.099690
723.1035,0.096208
724.9672,0.093082
726.8309,0.090391
728.6945,0.087930
730.5582,0.084641
732.4219,0.081657
734.2856,0.078699
736.1492,0.075373
738.0129,0.073498
739.8766,0.073890
741.7402,0.075422
743.6039,0.077290
745.4676,0.078596
747.3312,0.078599
749.1949,0.077871
751.0586,0.077429
752.9222,0.076808
754.7859,0.076145
756.6496,0.075853
758.5132,0.075336
760.3769,0.074509
762.2406,0.074544
764.1043,0.074662
765.9679,0.074380
767.8316,0.074168
769.6953,0.073935
771.5589,0.073963
773.4226,0.074572
775.2863,0.075279
777.1499,0.076146
779.0136,0.077054
780.8773,0.078035
782.7409,0.079067
784.6046,0.080496
786.4683,0.082229
788.3320,0.083437
790.1956,0.084278
792.0593,0.086033
793.9230,0.088311
795.7866,0.090125
797.6503,0.091585
799.5140,0.093043
801.3776,0.094310
803.2413,0.094969
805.1050,0.094559
806.9686,0.093209
808.8323,0.091538
810.6960,0.090005
812.5596,0.088052
814.4233,0.085601
816.2870,0.083055
818.1507,0.080719
820.0143,0.078684
821.8780,0.077285
823.7417,0.076671
825.6053,0.077091
827.4690,0.078633
829.3327,0.079360
831.1963,0.075204
833.0600,0.066365
834.9237,0.058762
836.7873,0.055470
838.6510,0.054555
840.5147,0.054191
842.3784,0.054213
844.2420,0.054444
846.1057,0.054624
847.9694,0.054720
849.8330,0.055042
851.6967,0.055719
853.5604,0.056397
855.4240,0.057064
857.2877,0.057617
859.1514,0.057431
861.0150,0.056721
862.8787,0.056338
864.7424,0.056296
866.6060,0.056325
868.4697,0.056383
870.3334,0.056504
872.1971,0.056824
874.0607,0.057322
875.9244,0.057834
877.7881,0.058158
879.6517,0.058597
881.5154,0.059082
883.3791,0.059530
885.2427,0.060045
887.1064,0.060823
888.9701,0.061709
890.8337,0.062438
892.6974,0.063339
894.5611,0.064515
896.4247,0.065727
898.2884,0.066999
900.1521,0.068811
902.0158,0.071036
903.8794,0.073423
905.7431,0.076544
907.6068,0.080135
909.4704,0.084133
911.3341,0.089278
913.1978,0.095244
915.0614,0.097708
916.9251,0.090943
918.7888,0.078646
920.6524,0.069691
922.5161,0.066039
924.3798,0.065155
926.2435,0.065465
928.1071,0.066306
929.9708,0.067307
931.8345,0.068601
933.6981,0.070076
935.5618,0.071263
937.4255,0.071888
939.2891,0.072210
941.1528,0.072836
943.0165,0.073813
944.8801,0.074833
946.7438,0.075866
948.6075,0.076959
950.4711,0.078212
952.3348,0.079582
954.1985,0.080970
956.0622,0.082421
957.9258,0.083771
959.7895,0.084957
961.6532,0.086217
963.5168,0.087713
965.3805,0.089547
967.2442,0.091669
969.1078,0.094132
970.9715,0.096864
972.8352,0.100023
974.6988,0.104683
976.5625,0.112342
978.4262,0.125139
980.2899,0.142722
982.1535,0.150376
984.0172,0.132120
985.8809,0.106676
987.7445,0.095324
989.6082,0.094047
991.4719,0.095088
993.3355,0.096784
995.1992,0.098696
997.0629,0.100716
998.9265,0.102671
1000.7902,0.104524
1002.6539,0.106295
1004.5175,0.108121
1006.3812,0.110076
1008.2449,0.111770
1010.1086,0.112739
1011.9722,0.113051
1013.8359,0.112723
1015.6996,0.111642
1017.5632,0.110152
1019.4269,0.108510
1021.2906,0.106727
1023.1542,0.105104
1025.0179,0.103627
1026.8816,0.102367
1028.7452,0.101481
1030.6089,0.100544
1032.4726,0.099561
1034.3362,0.099022
1036.1999,0.098909
1038.0636,0.099055
1039.9273,0.099632
1041.7909,0.100752
1043.6546,0.102195
1045.5183,0.103810
1047.3819,0.104824
1049.2456,0.103595
1051.1093,0.098697
1052.9729,0.091089
1054.8366,0.084022
1056.7003,0.079491
1058.5639,0.077161
1060.4276,0.076191
1062.2913,0.075943
1064.1550,0.076013
1066.0186,0.076456
1067.8823,0.077297
1069.7460,0.078342
1071.6096,0.079396
1073.4733,0.080433
1075.3370,0.081573
1077.2006,0.082758
1079.0643,0.084037
1080.9280,0.085419
1082.7916,0.086975
1084.6553,0.088734
1086.5190,0.090697
1088.3826,0.092962
1090.2463,0.095643
1092.1100,0.098741
1093.9737,0.102218
1095.8373,0.106233
1097.7010,0.110803
1099.5647,0.115633
1101.4283,0.120490
1103.2920,0.125122
1105.1557,0.128496
1107.0193,0.129137
1108.8830,0.126010
1110.7467,0.119009
1112.6103,0.109484
1114.4740,0.099378
1116.3377,0.090081
1118.2014,0.082275
1120.0650,0.076420
1121.9287,0.072465
1123.7924,0.069873
1125.6560,0.067934
1127.5197,0.065995
1129.3834,0.063920
1131.2470,0.062003
1133.1107,0.060424
1134.9744,0.059241
1136.8380,0.058456
1138.7017,0.057971
1140.5654,0.057721
1142.4290,0.057621
1144.2927,0.057557
1146.1564,0.057463
1148.0201,0.057388
1149.8837,0.057380
1151.7474,0.057613
1153.6111,0.058116
1155.4747,0.058680
1157.3384,0.059270
1159.2021,0.059806
1161.0657,0.060305
1162.9294,0.061139
1164.7931,0.062580
1166.6567,0.064656
1168.5204,0.067322
1170.3841,0.070146
1172.2477,0.072170
1174.1114,0.072163
1175.9751,0.069513
1177.8388,0.065514
1179.7024,0.062133
1181.5661,0.060193
1183.4298,0.059462
1185.2934,0.059441
1187.1571,0.059798
1189.0208,0.060118
1190.8844,0.060112
1192.7481,0.059887
1194.6118,0.059689
1196.4754,0.059780
1198.3391,0.060152
1200.2028,0.060583
1202.0665,0.060952
1203.9301,0.061240
1205.7938,0.061493
1207.6575,0.061673
1209.5211,0.061717
1211.3848,0.061667
1213.2485,0.061548
1215.1121,0.061399
1216.9758,0.061304
1218.8395,0.061330
1220.7031,0.061474
1222.5668,0.061594
1224.4305,0.061735
1226.2941,0.061929
1228.1578,0.062109
1230.0215,0.062395
1231.8852,0.062782
1233.7488,0.063150
1235.6125,0.063522
1237.4762,0.063984
1239.3398,0.064509
1241.2035,0.064944
1243.0672,0.065267
1244.9308,0.065625
1246.7945,0.066076
1248.6582,0.066550
1250.5218,0.067110
1252.3855,0.067797
1254.2492,0.068370
1256.1129,0.068898
1257.9765,0.069603
1259.8402,0.070424
1261.7039,0.071288
1263.5675,0.072181
1265.4312,0.072986
1267.2949,0.073334
1269.1585,0.073304
1271.0222,0.073292
1272.8859,0.073381
1274.7495,0.073669
1276.6132,0.074337
1278.4769,0.075367
1280.3405,0.076640
1282.2042,0.078137
1284.0679,0.079808
1285.9316,0.081506
1287.7952,0.083285
1289.6589,0.085297
1291.5226,0.087528
1293.3862,0.090104
1295.2499,0.093311
1297.1136,0.097347
1298.9772,0.102348
1300.8409,0.108440
1302.7046,0.115107
1304.5682,0.120198
1306.4319,0.120176
1308.2956,0.111718
1310.1592,0.095674
1312.0229,0.078966
1313.8866,0.067823
1315.7503,0.063336
1317.6139,0.062964
1319.4776,0.064441
1321.3413,0.066332
1323.2049,0.068212
1325.0686,0.070266
1326.9323,0.072448
1328.7959,0.074574
1330.6596,0.076520
1332.5233,0.078081
1334.3869,0.078996
1336.2506,0.079779
1338.1143,0.081343
1339.9780,0.083212
1341.8416,0.083477
1343.7053,0.082987
1345.5690,0.083256
1347.4326,0.084192
1349.2963,0.085432
1351.1600,0.086589
1353.0236,0.087954
1354.8873,0.089905
1356.7510,0.091827
1358.6146,0.093509
1360.4783,0.095821
1362.3420,0.099574
1364.2056,0.102673
1366.0693,0.104015
1367.9330,0.106363
1369.7967,0.109338
1371.6603,0.111742
1373.5240,0.115491
1375.3877,0.119863
1377.2513,0.122443
1379.1150,0.125720
1380.9787,0.129956
1382.8423,0.134306
1384.7060,0.139421
1386.5697,0.146350
1388.4333,0.153778
1390.2970,0.157697
1392.1607,0.160353
1394.0244,0.162102
1395.8880,0.158875
1397.7517,0.152064
1399.6154,0.144146
1401.4790,0.136133
1403.3427,0.129892
1405.2064,0.120527
1407.0700,0.106197
1408.9337,0.091912
1410.7974,0.078842
1412.6610,0.069072
1414.5247,0.064136
1416.3884,0.063463
1418.2520,0.067442
1420.1157,0.074728
1421.9794,0.078056
1423.8431,0.076788
1425.7067,0.069902
1427.5704,0.062015
1429.4341,0.057029
1431.2977,0.054703
1433.1614,0.054138
1435.0251,0.055273
1436.8887,0.058764
1438.7524,0.060605
1440.6161,0.060756
1442.4797,0.061860
1444.3434,0.063175
1446.2071,0.064516
1448.0707,0.065620
1449.9344,0.064724
1451.7981,0.062290
1453.6618,0.059839
1455.5254,0.059512
1457.3891,0.063881
1459.2528,0.065736
1461.1164,0.064460
1462.9801,0.064672
1464.8438,0.065679
1466.7074,0.064702
1468.5711,0.062525
1470.4348,0.061616
1472.2984,0.062741
1474.1621,0.063745
1476.0258,0.063174
1477.8895,0.062760
1479.7531,0.062559
1481.6168,0.063168
1483.4805,0.063451
1485.3441,0.063544
1487.2078,0.064640
1489.0715,0.066947
1490.9351,0.068512
1492.7988,0.067553
1494.6625,0.067318
1496.5261,0.069710
1498.3898,0.071745
1500.2535,0.071377
1502.1171,0.070212
1503.9808,0.069529
1505.8445,0.071874
1507.7082,0.078015
1509.5718,0.076459
1511.4355,0.075204
1513.2992,0.075274
1515.1628,0.076007
1517.0265,0.077722
1518.8902,0.078730
1520.7538,0.080407
1522.6175,0.083430
1524.4812,0.083400
1526.3448,0.084382
1528.2085,0.085245
1530.0722,0.084880
1531.9359,0.085618
1533.7995,0.087891
1535.6632,0.087515
1537.5269,0.086845
1539.3905,0.090650
1541.2542,0.097170
1543.1179,0.097110
1544.9815,0.097577
1546.8452,0.097816
1548.7089,0.098476
1550.5725,0.100478
1552.4362,0.101700
1554.2999,0.102633
1556.1635,0.104403
1558.0272,0.109921
1559.8909,0.120628
1561.7546,0.116129
1563.6182,0.114765
1565.4819,0.116696
1567.3456,0.119082
1569.2092,0.122779
1571.0729,0.126025
1572.9366,0.126359
1574.8002,0.129593
1576.6639,0.136086
1578.5276,0.137997
1580.3912,0.138488
1582.2549,0.140848
1584.1186,0.142950
1585.9822,0.144783
1587.8459,0.146284
1589.7096,0.147301
1591.5733,0.147601
1593.4369,0.147534
1595.3006,0.147094
1597.1643,0.145953
1599.0279,0.144191
1600.8916,0.142302
1602.7553,0.140185
1604.6189,0.138035
1606.4826,0.136251
1608.3463,0.134759
1610.2099,0.132810
1612.0736,0.130185
1613.9373,0.127785
1615.8010,0.125840
1617.6646,0.120454
1619.5283,0.113402
1621.3920,0.109601
1623.2556,0.105203
1625.1193,0.097984
1626.9830,0.091468
1628.8466,0.084135
1630.7103,0.075933
1632.5740,0.069536
1634.4376,0.064296
1636.3013,0.058204
1638.1650,0.052555
1640.0286,0.050265
1641.8923,0.048850
1643.7560,0.048479
1645.6197,0.049238
1647.4833,0.050999
1649.3470,0.051692
1651.2107,0.053179
1653.0743,0.058055
1654.9380,0.061320
1656.8017,0.060241
1658.6653,0.060877
1660.5290,0.061827
1662.3927,0.062275
1664.2563,0.060999
1666.1200,0.059442
1667.9837,0.058749
1669.8474,0.058011
1671.7110,0.056684
1673.5747,0.056823
1675.4384,0.058585
1677.3020,0.060459
1679.1657,0.061989
1681.0294,0.065253
1682.8930,0.069591
1684.7567,0.075190
1686.6204,0.075998
1688.4840,0.075507
1690.3477,0.075011
1692.2114,0.073394
1694.0750,0.072101
1695.9387,0.070588
1697.8024,0.066959
1699.6661,0.065107
1701.5297,0.059616
1703.3934,0.053535
1705.2571,0.048135
1707.1207,0.040287
1708.9844,0.034435
1710.8481,0.030526
1712.7117,0.027263
1714.5754,0.025194
1716.4391,0.023785
1718.3027,0.022652
1720.1664,0.021331
1722.0301,0.020487
1723.8937,0.019243
1725.7574,0.017514
1727.6211,0.015901
1729.4848,0.014624
1731.3484,0.013494
1733.2121,0.012929
1735.0758,0.012084
1736.9394,0.011564
1738.8031,0.011262
1740.6668,0.010954
1742.5304,0.010693
1744.3941,0.010701
1746.2578,0.010638
1748.1214,0.010849
1749.9851,0.010870
1751.8488,0.010874
1753.7125,0.010715
1755.5761,0.010842
1757.4398,0.010928
1759.3035,0.010808
1761.1671,0.010663
1763.0308,0.010443
1764.8945,0.010134
1766.7581,0.010183
1768.6218,0.009859
1770.4855,0.009420
1772.3491,0.009264
1774.2128,0.009341
1776.0765,0.009313
1777.9401,0.009395
1779.8038,0.009306
1781.6675,0.009384
1783.5312,0.009472
1785.3948,0.009490
1787.2585,0.009427
1789.1222,0.009614
1790.9858,0.009795
1792.8495,0.009945
1794.7132,0.009644
1796.5768,0.009567
1798.4405,0.009688
1800.3042,0.009895
1802.1678,0.009852
1804.0315,0.009786
1805.8952,0.009963
1807.7589,0.010284
1809.6225,0.010222
1811.4862,0.010183
1813.3499,0.010140
1815.2135,0.010132
1817.0772,0.010157
1818.9409,0.010249
1820.8045,0.010171
1822.6682,0.010102
1824.5319,0.010066
1826.3955,0.010037
1828.2592,0.010048
1830.1229,0.010073
1831.9865,0.009752
1833.8502,0.009845
1835.7139,0.010023
1837.5776,0.010150
1839.4412,0.009761
1841.3049,0.009541
1843.1686,0.009821
1845.0322,0.010304
1846.8959,0.010178
1848.7596,0.010044
1850.6232,0.010075
1852.4869,0.010209
1854.3506,0.010283
1856.2142,0.010481
1858.0779,0.010521
1859.9416,0.010450
1861.8052,0.010457
1863.6689,0.010543
1865.5326,0.010248
1867.3963,0.010430
1869.2599,0.010721
1871.1236,0.010580
1872.9873,0.010466
1874.8509,0.010576
1876.7146,0.010374
1878.5783,0.010236
1880.4419,0.010187
1882.3056,0.010232
1884.1693,0.010409
1886.0329,0.010590
1887.8966,0.010378
1889.7603,0.010477
1891.6240,0.010384
1893.4876,0.010328
1895.3513,0.010464
1897.2150,0.010860
1899.0786,0.010887
1900.9423,0.010696
1902.8060,0.010421
1904.6696,0.010625
1906.5333,0.010795
1908.3970,0.010927
1910.2606,0.010742
1912.1243,0.010715
1913.9880,0.010546
1915.8516,0.010592
1917.7153,0.010807
1919.5790,0.010799
1921.4427,0.010329
1923.3063,0.010495
1925.1700,0.010744
1927.0337,0.010722
1928.8973,0.010235
1930.7610,0.010357
1932.6247,0.010193
1934.4883,0.010019
1936.3520,0.010082
1938.2157,0.010598
1940.0793,0.010687
1941.9430,0.009988
1943.8067,0.009093
1945.6704,0.008868
1947.5340,0.008849
1949.3977,0.009748
1951.2614,0.009657
1953.1250,0.009208
1954.9887,0.009084
1956.8524,0.009530
1958.7160,0.009289
1960.5797,0.007889
1962.4434,0.006511
1964.3070,0.006504
1966.1707,0.006326
1968.0344,0.005527
1969.8980,0.004518
1971.7617,0.004077
1973.6254,0.003629
1975.4891,0.004927
1977.3527,0.005545
1979.2164,0.005606
1981.0801,0.006445
1982.9437,0.007629
1984.8074,0.007571
1986.6711,0.007450
1988.5347,0.006517
1990.3984,0.006897
1992.2621,0.007282
1994.1257,0.007765
1995.9894,0.007810
1997.8531,0.007973
1999.7167,0.008029
2001.5804,0.008437
2003.4441,0.008279
2005.3078,0.007715
2007.1714,0.006309
2009.0351,0.005006
2010.8988,0.004836
2012.7624,0.006369
2014.6261,0.006982
2016.4898,0.006770
2018.3534,0.006437
2020.2171,0.006312
2022.0808,0.005557
2023.9444,0.005108
2025.8081,0.004096
2027.6718,0.004988
2029.5355,0.006020
2031.3991,0.005163
2033.2628,0.004172
2035.1265,0.005528
2036.9901,0.006451
2038.8538,0.006605
2040.7175,0.006575
2042.5811,0.007233
2044.4448,0.006889
2046.3085,0.007617
2048.1721,0.008469
2050.0358,0.009345
2051.8995,0.009470
2053.7631,0.010058
2055.6268,0.011157
2057.4905,0.011113
2059.3542,0.011026
2061.2178,0.012190
2063.0815,0.012428
2064.9452,0.011626
2066.8088,0.011729
2068.6725,0.012304
2070.5362,0.012133
2072.3998,0.012496
2074.2635,0.012979
2076.1272,0.013598
2077.9908,0.013064
2079.8545,0.012885
2081.7182,0.013393
2083.5819,0.013689
2085.4455,0.012972
2087.3092,0.012836
2089.1729,0.013289
2091.0365,0.013546
2092.9002,0.013390
2094.7639,0.013416
2096.6275,0.013944
2098.4912,0.014323
2100.3549,0.013710
2102.2185,0.013558
2104.0822,0.013397
2105.9459,0.013482
2107.8095,0.013707
2109.6732,0.013769
2111.5369,0.014480
2113.4006,0.014893
2115.2642,0.013956
2117.1279,0.014030
2118.9916,0.014449
2120.8552,0.014528
2122.7189,0.014454
2124.5826,0.014277
2126.4462,0.013674
2128.3099,0.013616
2130.1736,0.013599
2132.0372,0.013176
2133.9009,0.012568
2135.7646,0.012973
2137.6282,0.012605
2139.4919,0.011752
2141.3556,0.011474
2143.2193,0.011824
2145.0829,0.011335
2146.9466,0.010751
2148.8103,0.010405
2150.6739,0.009221
2152.5376,0.008450
2154.4013,0.009288
2156.2649,0.007982
2158.1286,0.006303
2159.9923,0.006300
2161.8559,0.007622
2163.7196,0.008443
2165.5833,0.008239
2167.4470,0.007977
2169.3106,0.009596
2171.1743,0.009945
2173.0380,0.008873
2174.9016,0.009003
2176.7653,0.011037
2178.6290,0.011228
2180.4926,0.011030
2182.3563,0.010205
2184.2200,0.009980
2186.0836,0.010504
2187.9473,0.010416
2189.8110,0.011399
2191.6746,0.013079
2193.5383,0.012503
2195.4020,0.012733
2197.2657,0.013151
2199.1293,0.012818
2200.9930,0.011572
2202.8567,0.011835
2204.7203,0.012495
2206.5840,0.012259
2208.4477,0.011873
2210.3113,0.012257
2212.1750,0.012917
2214.0387,0.013360
2215.9023,0.013502
2217.7660,0.013669
2219.6297,0.013435
2221.4934,0.013809
2223.3570,0.014002
2225.2207,0.014149
2227.0844,0.014061
2228.9480,0.014780
2230.8117,0.014848
2232.6754,0.014687
2234.5390,0.015411
2236.4027,0.016108
2238.2664,0.016212
2240.1300,0.016574
2241.9937,0.016290
2243.8574,0.016106
2245.7210,0.015600
2247.5847,0.015426
2249.4484,0.015423
2251.3121,0.015805
2253.1757,0.016641
2255.0394,0.016933
2256.9031,0.017080
2258.7667,0.017705
2260.6304,0.017780
2262.4941,0.017698
2264.3577,0.018025
2266.2214,0.017921
2268.0851,0.017395
2269.9487,0.017413
2271.8124,0.018285
2273.6761,0.018517
2275.5397,0.018536
2277.4034,0.019453
2279.2671,0.019875
2281.1308,0.019735
2282.9944,0.019951
2284.8581,0.020132
2286.7218,0.020404
2288.5854,0.020425
2290.4491,0.020308
2292.3128,0.020213
2294.1764,0.020002
2296.0401,0.020096
2297.9038,0.020148
2299.7674,0.020252
2301.6311,0.020316
2303.4948,0.020637
2305.3585,0.020843
2307.2221,0.021196
2309.0858,0.020966
2310.9495,0.020346
2312.8131,0.020637
2314.6768,0.021147
2316.5405,0.020835
2318.4041,0.020910
2320.2678,0.021112
2322.1315,0.020913
2323.9951,0.020957
2325.8588,0.021006
2327.7225,0.020493
2329.5861,0.019894
2331.4498,0.019834
2333.3135,0.019922
2335.1772,0.019851
2337.0408,0.019929
2338.9045,0.020022
2340.7682,0.020292
2342.6318,0.020670
2344.4955,0.020757
2346.3592,0.020215
2348.2228,0.019877
2350.0865,0.019716
2351.9502,0.019727
2353.8138,0.019799
2355.6775,0.019867
2357.5412,0.019670
2359.4049,0.019786
2361.2685,0.019814
2363.1322,0.020279
2364.9959,0.020760
2366.8595,0.020344
2368.7232,0.019995
2370.5869,0.020170
2372.4505,0.020493
2374.3142,0.020817
2376.1779,0.020757
2378.0415,0.020574
2379.9052,0.020618
2381.7689,0.020825
2383.6325,0.020803
2385.4962,0.020677
2387.3599,0.020663
2389.2236,0.020583
2391.0872,0.020462
2392.9509,0.020713
2394.8146,0.021077
2396.6782,0.021253
2398.5419,0.021152
2400.4056,0.021081
2402.2692,0.021136
2404.1329,0.021036
2405.9966,0.020981
2407.8602,0.021213
2409.7239,0.021500
2411.5876,0.021665
2413.4512,0.021568
2415.3149,0.021516
2417.1786,0.021167
2419.0423,0.021236
2420.9059,0.021609
2422.7696,0.021550
2424.6333,0.021639
2426.4969,0.021837
2428.3606,0.021822
2430.2243,0.021910
2432.0879,0.022143
2433.9516,0.022036
2435.8153,0.022049
2437.6789,0.022205
2439.5426,0.022101
2441.4063,0.022118
2443.2700,0.021887
2445.1336,0.021887
2446.9973,0.022279
2448.8610,0.022303
2450.7246,0.022284
2452.5883,0.022007
2454.4520,0.021906
2456.3156,0.021762
2458.1793,0.021582
2460.0430,0.021762
2461.9066,0.022036
2463.7703,0.022078
2465.6340,0.022049
2467.4976,0.021978
2469.3613,0.022112
2471.2250,0.022197
2473.0887,0.022446
2474.9523,0.022419
2476.8160,0.022194
2478.6797,0.022025
2480.5433,0.022038
2482.4070,0.022176
2484.2707,0.022121
2486.1343,0.022403
2487.9980,0.022648
2489.8617,0.022792
2491.7253,0.023256
2493.5890,0.023411
2495.4527,0.022929
2497.3164,0.022762
2499.1800,0.022833
2501.0437,0.023161
2502.9074,0.023596
2504.7710,0.023789
2506.6347,0.023321
2508.4984,0.023131
2510.3620,0.023563
2512.2257,0.023582
2514.0894,0.023453
2515.9530,0.023691
2517.8167,0.023688
2519.6804,0.023865
2521.5440,0.024193
2523.4077,0.024061
2525.2714,0.023480
2527.1351,0.023879
