Wavenumber,Intensity
650.4205,0.181355
652.2841,0.176192
654.1478,0.174429
656.0115,0.172225
657.8751,0.169832
659.7388,0.167494
661.6025,0.165870
663.4661,0.165071
665.3298,0.164410
667.1935,0.162310
669.0571,0.161255
670.9208,0.160683
672.7845,0.160695
674.6481,0.160530
676.5118,0.161552
678.3755,0.161073
680.2392,0.160699
682.1028,0.161448
683.9665,0.162671
685.8302,0.162572
687.6938,0.162039
689.5575,0.161385
691.4212,0.162264
693.2848,0.162798
695.1485,0.162796
697.0122,0.163431
698.8758,0.165395
700.7395,0.166281
702.6032,0.165402
704.4669,0.162937
706.3305,0.159344
708.1942,0.154417
710.0579,0.148963
711.9215,0.142386
713.7852,0.135440
715.6489,0.129279
717.5125,0.124235
719.3762,0.119642
721.2399,0.115039
723.1035,0.110738
724.9672,0.106612
726.8309,0.102700
728.6945,0.099015
730.5582,0.095648
732.4219,0.092732
734.2856,0.089828
736.1492,0.087317
738.0129,0.086612
739.8766,0.087459
741.7402,0.088568
743.6039,0.090271
745.4676,0.092005
747.3312,0.092460
749.1949,0.092043
751.0586,0.092105
752.9222,0.091690
754.7859,0.090756
756.6496,0.090235
758.5132,0.089731
760.3769,0.089026
762.2406,0.087907
764.1043,0.086893
765.9679,0.086517
767.8316,0.086141
769.6953,0.085609
771.5589,0.085173
773.4226,0.084991
775.2863,0.084946
777.1499,0.084859
779.0136,0.085161
780.8773,0.085850
782.7409,0.086559
784.6046,0.087468
786.4683,0.088861
788.3320,0.090193
790.1956,0.091039
792.0593,0.092408
793.9230,0.094037
795.7866,0.095267
797.6503,0.096485
799.5140,0.097867
801.3776,0.098713
803.2413,0.098808
805.1050,0.098277
806.9686,0.097375
808.8323,0.095809
810.6960,0.093975
812.5596,0.091895
814.4233,0.089459
816.2870,0.087000
818.1507,0.084731
820.0143,0.082828
821.8780,0.081552
823.7417,0.080898
825.6053,0.081136
827.4690,0.082903
829.3327,0.084141
831.1963,0.080039
833.0600,0.070801
834.9237,0.063026
836.7873,0.059564
838.6510,0.058458
840.5147,0.058155
842.3784,0.058151
844.2420,0.057869
846.1057,0.057456
847.9694,0.057361
849.8330,0.057211
851.6967,0.056810
853.5604,0.056306
855.4240,0.055828
857.2877,0.055632
859.1514,0.055592
861.0150,0.055382
862.8787,0.055017
864.7424,0.054556
866.6060,0.054276
868.4697,0.054332
870.3334,0.054172
872.1971,0.053934
874.0607,0.053907
875.9244,0.053912
877.7881,0.054104
879.6517,0.054442
881.5154,0.054742
883.3791,0.055413
885.2427,0.056426
887.1064,0.057196
888.9701,0.057760
890.8337,0.058527
892.6974,0.059511
894.5611,0.060499
896.4247,0.061546
898.2884,0.062708
900.1521,0.064000
902.0158,0.065831
903.8794,0.068514
905.7431,0.072089
907.6068,0.076084
909.4704,0.080431
911.3341,0.085597
913.1978,0.091427
915.0614,0.094206
916.9251,0.088185
918.7888,0.075956
920.6524,0.066255
922.5161,0.062021
924.3798,0.060997
926.2435,0.061015
928.1071,0.061157
929.9708,0.061416
931.8345,0.061919
933.6981,0.062168
935.5618,0.062203
937.4255,0.062388
939.2891,0.062569
941.1528,0.062754
943.0165,0.063070
944.8801,0.063457
946.7438,0.064067
948.6075,0.064879
950.4711,0.065973
952.3348,0.067501
954.1985,0.069128
956.0622,0.070645
957.9258,0.072276
959.7895,0.074233
961.6532,0.076387
963.5168,0.078600
965.3805,0.081017
967.2442,0.083918
969.1078,0.087321
970.9715,0.090920
972.8352,0.095156
974.6988,0.101346
976.5625,0.110790
978.4262,0.125429
980.2899,0.144634
982.1535,0.152530
984.0172,0.132368
985.8809,0.104612
987.7445,0.091881
989.6082,0.089950
991.4719,0.090371
993.3355,0.091157
995.1992,0.091989
997.0629,0.092511
998.9265,0.092786
1000.7902,0.093165
1002.6539,0.093583
1004.5175,0.093967
1006.3812,0.094502
1008.2449,0.095193
1010.1086,0.096007
1011.9722,0.096793
1013.8359,0.097317
1015.6996,0.097816
1017.5632,0.098415
1019.4269,0.098825
1021.2906,0.099045
1023.1542,0.099193
1025.0179,0.099275
1026.8816,0.099234
1028.7452,0.099220
1030.6089,0.099426
1032.4726,0.099847
1034.3362,0.100527
1036.1999,0.101482
1038.0636,0.102736
1039.9273,0.104231
1041.7909,0.105963
1043.6546,0.108085
1045.5183,0.110419
1047.3819,0.112068
1049.2456,0.111306
1051.1093,0.106599
1052.9729,0.098877
1054.8366,0.091196
1056.7003,0.085821
1058.5639,0.082937
1060.4276,0.081551
1062.2913,0.080983
1064.1550,0.080949
1066.0186,0.081566
1067.8823,0.083083
1069.7460,0.085390
1071.6096,0.088113
1073.4733,0.090780
1075.3370,0.093129
1077.2006,0.094932
1079.0643,0.096107
1080.9280,0.097039
1082.7916,0.097910
1084.6553,0.098874
1086.5190,0.100165
1088.3826,0.101825
1090.2463,0.104143
1092.1100,0.107242
1093.9737,0.111001
1095.8373,0.115415
1097.7010,0.120356
1099.5647,0.125567
1101.4283,0.130746
1103.2920,0.135263
1105.1557,0.138290
1107.0193,0.138512
1108.8830,0.134699
1110.7467,0.127025
1112.6103,0.116972
1114.4740,0.106507
1116.3377,0.097025
1118.2014,0.089246
1120.0650,0.083537
1121.9287,0.079675
1123.7924,0.077044
1125.6560,0.075077
1127.5197,0.073323
1129.3834,0.071539
1131.2470,0.069853
1133.1107,0.068560
1134.9744,0.067690
1136.8380,0.067301
1138.7017,0.067494
1140.5654,0.068070
1142.4290,0.068775
1144.2927,0.069383
1146.1564,0.069740
1148.0201,0.069891
1149.8837,0.069853
1151.7474,0.069655
1153.6111,0.069304
1155.4747,0.068923
1157.3384,0.068633
1159.2021,0.068333
1161.0657,0.068069
1162.9294,0.068078
1164.7931,0.068611
1166.6567,0.069838
1168.5204,0.071658
1170.3841,0.073708
1172.2477,0.074969
1174.1114,0.073939
1175.9751,0.070282
1177.8388,0.065585
1179.7024,0.061760
1181.5661,0.059547
1183.4298,0.058709
1185.2934,0.058592
1187.1571,0.058679
1189.0208,0.058826
1190.8844,0.058953
1192.7481,0.059062
1194.6118,0.059287
1196.4754,0.059626
1198.3391,0.059974
1200.2028,0.060385
1202.0665,0.060823
1203.9301,0.061163
1205.7938,0.061475
1207.6575,0.061812
1209.5211,0.062073
1211.3848,0.062370
1213.2485,0.062776
1215.1121,0.063179
1216.9758,0.063621
1218.8395,0.064145
1220.7031,0.064664
1222.5668,0.065167
1224.4305,0.065725
1226.2941,0.066330
1228.1578,0.066931
1230.0215,0.067480
1231.8852,0.067938
1233.7488,0.068407
1235.6125,0.068941
1237.4762,0.069484
1239.3398,0.070012
1241.2035,0.070510
1243.0672,0.071042
1244.9308,0.071569
1246.7945,0.072066
1248.6582,0.072691
1250.5218,0.073365
1252.3855,0.073970
1254.2492,0.074625
1256.1129,0.075365
1257.9765,0.076189
1259.8402,0.077072
1261.7039,0.077963
1263.5675,0.078870
1265.4312,0.079698
1267.2949,0.080171
1269.1585,0.080223
1271.0222,0.080227
1272.8859,0.080325
1274.7495,0.080604
1276.6132,0.081258
1278.4769,0.082120
1280.3405,0.083171
1282.2042,0.084510
1284.0679,0.086133
1285.9316,0.088060
1287.7952,0.090364
1289.6589,0.093005
1291.5226,0.095936
1293.3862,0.099297
1295.2499,0.103266
1297.1136,0.107976
1298.9772,0.113456
1300.8409,0.119733
1302.7046,0.125951
1304.5682,0.129751
1306.4319,0.128044
1308.2956,0.118248
1310.1592,0.101680
1312.0229,0.084939
1313.8866,0.073895
1315.7503,0.069753
1317.6139,0.069879
1319.4776,0.071848
1321.3413,0.074242
1323.2049,0.076585
1325.0686,0.078997
1326.9323,0.081454
1328.7959,0.083808
1330.6596,0.085899
1332.5233,0.087528
1334.3869,0.088533
1336.2506,0.089360
1338.1143,0.090822
1339.9780,0.092531
1341.8416,0.093072
1343.7053,0.093146
1345.5690,0.093741
1347.4326,0.094670
1349.2963,0.095852
1351.1600,0.097205
1353.0236,0.098809
1354.8873,0.100829
1356.7510,0.102752
1358.6146,0.104353
1360.4783,0.106762
1362.3420,0.110811
1364.2056,0.114315
1366.0693,0.116146
1367.9330,0.118770
1369.7967,0.121822
1371.6603,0.124276
1373.5240,0.127783
1375.3877,0.131720
1377.2513,0.134367
1379.1150,0.137910
1380.9787,0.142400
1382.8423,0.146947
1384.7060,0.151967
1386.5697,0.158299
1388.4333,0.164938
1390.2970,0.168223
1392.1607,0.169477
1394.0244,0.169083
1395.8880,0.164593
1397.7517,0.157675
1399.6154,0.149634
1401.4790,0.142139
1403.3427,0.135484
1405.2064,0.124809
1407.0700,0.110407
1408.9337,0.096483
1410.7974,0.083692
1412.6610,0.074690
1414.5247,0.070628
1416.3884,0.070472
1418.2520,0.074517
1420.1157,0.081808
1421.9794,0.085348
1423.8431,0.083931
1425.7067,0.076947
1427.5704,0.069113
1429.4341,0.063889
1431.2977,0.061496
1433.1614,0.061291
1435.0251,0.062515
1436.8887,0.065400
1438.7524,0.067183
1440.6161,0.067796
1442.4797,0.069088
1444.3434,0.070283
1446.2071,0.071118
1448.0707,0.071476
1449.9344,0.070144
1451.7981,0.067683
1453.6618,0.065274
1455.5254,0.064696
1457.3891,0.067710
1459.2528,0.068942
1461.1164,0.068013
1462.9801,0.068088
1464.8438,0.068590
1466.7074,0.067578
1468.5711,0.065656
1470.4348,0.064650
1472.2984,0.065012
1474.1621,0.065359
1476.0258,0.064907
1477.8895,0.064543
1479.7531,0.064292
1481.6168,0.064585
1483.4805,0.064576
1485.3441,0.064501
1487.2078,0.065273
1489.0715,0.067145
1490.9351,0.068495
1492.7988,0.068069
1494.6625,0.068117
1496.5261,0.070006
1498.3898,0.071861
1500.2535,0.072065
1502.1171,0.071582
1503.9808,0.071509
1505.8445,0.073824
1507.7082,0.079585
1509.5718,0.079049
1511.4355,0.078515
1513.2992,0.079076
1515.1628,0.080079
1517.0265,0.081561
1518.8902,0.082597
1520.7538,0.084273
1522.6175,0.086736
1524.4812,0.086678
1526.3448,0.087681
1528.2085,0.088710
1530.0722,0.088894
1531.9359,0.090021
1533.7995,0.092230
1535.6632,0.092306
1537.5269,0.092384
1539.3905,0.095476
1541.2542,0.100330
1543.1179,0.101248
1544.9815,0.102659
1546.8452,0.103787
1548.7089,0.105099
1550.5725,0.107344
1552.4362,0.108904
1554.2999,0.110123
1556.1635,0.112015
1558.0272,0.116562
1559.8909,0.125293
1561.7546,0.123141
1563.6182,0.122906
1565.4819,0.124932
1567.3456,0.127093
1569.2092,0.130271
1571.0729,0.133566
1572.9366,0.134609
1574.8002,0.137450
1576.6639,0.142589
1578.5276,0.144822
1580.3912,0.145748
1582.2549,0.147782
1584.1186,0.149502
1585.9822,0.150775
1587.8459,0.151581
1589.7096,0.151899
1591.5733,0.151518
1593.4369,0.150738
1595.3006,0.149569
1597.1643,0.148116
1599.0279,0.146274
1600.8916,0.144265
1602.7553,0.142370
1604.6189,0.140730
1606.4826,0.139247
1608.3463,0.137854
1610.2099,0.136071
1612.0736,0.133751
1613.9373,0.131209
1615.8010,0.127894
1617.6646,0.121365
1619.5283,0.115613
1621.3920,0.112003
1623.2556,0.106482
1625.1193,0.099477
1626.9830,0.093822
1628.8466,0.086785
1630.7103,0.079268
1632.5740,0.073426
1634.4376,0.067694
1636.3013,0.060425
1638.1650,0.055968
1640.0286,0.055173
1641.8923,0.054644
1643.7560,0.055016
1645.6197,0.056556
1647.4833,0.058958
1649.3470,0.059952
1651.2107,0.061743
1653.0743,0.065898
1654.9380,0.069098
1656.8017,0.068946
1658.6653,0.069642
1660.5290,0.070215
1662.3927,0.070212
1664.2563,0.069055
1666.1200,0.067848
1667.9837,0.067007
1669.8474,0.066031
1671.7110,0.065216
1673.5747,0.065847
1675.4384,0.067722
1677.3020,0.069908
1679.1657,0.071932
1681.0294,0.075187
1682.8930,0.078962
1684.7567,0.083667
1686.6204,0.084181
1688.4840,0.083179
1690.3477,0.081958
1692.2114,0.079942
1694.0750,0.077665
1695.9387,0.074786
1697.8024,0.071117
1699.6661,0.068678
1701.5297,0.062612
1703.3934,0.057578
1705.2571,0.051921
1707.1207,0.044323
1708.9844,0.038951
1710.8481,0.034798
1712.7117,0.031394
1714.5754,0.029520
1716.4391,0.027862
1718.3027,0.026495
1720.1664,0.025184
1722.0301,0.024514
1723.8937,0.023323
1725.7574,0.021643
1727.6211,0.019978
1729.4848,0.018607
1731.3484,0.017305
1733.2121,0.016618
1735.0758,0.015483
1736.9394,0.014856
1738.8031,0.014631
1740.6668,0.014356
1742.5304,0.014112
1744.3941,0.014025
1746.2578,0.013617
1748.1214,0.013455
1749.9851,0.013285
1751.8488,0.012969
1753.7125,0.012622
1755.5761,0.012714
1757.4398,0.012615
1759.3035,0.012543
1761.1671,0.012535
1763.0308,0.012512
1764.8945,0.012190
1766.7581,0.012168
1768.6218,0.012175
1770.4855,0.012259
1772.3491,0.012189
1774.2128,0.012024
1776.0765,0.011873
1777.9401,0.012096
1779.8038,0.012295
1781.6675,0.012395
1783.5312,0.012288
1785.3948,0.012369
1787.2585,0.012237
1789.1222,0.012124
1790.9858,0.012125
1792.8495,0.012300
1794.7132,0.012151
1796.5768,0.012235
1798.4405,0.012286
1800.3042,0.012441
1802.1678,0.012326
1804.0315,0.012357
1805.8952,0.012576
1807.7589,0.012716
1809.6225,0.012427
1811.4862,0.012316
1813.3499,0.012348
1815.2135,0.012361
1817.0772,0.012179
1818.9409,0.012317
1820.8045,0.012367
1822.6682,0.012381
1824.5319,0.012283
1826.3955,0.012124
1828.2592,0.012039
1830.1229,0.012215
1831.9865,0.012119
1833.8502,0.012130
1835.7139,0.012141
1837.5776,0.012242
1839.4412,0.012066
1841.3049,0.012051
1843.1686,0.012238
1845.0322,0.012274
1846.8959,0.011920
1848.7596,0.012159
1850.6232,0.012307
1852.4869,0.012421
1854.3506,0.012210
1856.2142,0.012307
1858.0779,0.012615
1859.9416,0.012789
1861.8052,0.012625
1863.6689,0.012445
1865.5326,0.012350
1867.3963,0.012541
1869.2599,0.012342
1871.1236,0.012170
1872.9873,0.012097
1874.8509,0.012164
1876.7146,0.012136
1878.5783,0.012151
1880.4419,0.012120
1882.3056,0.012393
1884.1693,0.012718
1886.0329,0.012710
1887.8966,0.012274
1889.7603,0.012104
1891.6240,0.011997
1893.4876,0.012111
1895.3513,0.012195
1897.2150,0.012299
1899.0786,0.012395
1900.9423,0.012661
1902.8060,0.012620
1904.6696,0.012394
1906.5333,0.012382
1908.3970,0.012611
1910.2606,0.012294
1912.1243,0.012148
1913.9880,0.012045
1915.8516,0.012108
1917.7153,0.012287
1919.5790,0.012747
1921.4427,0.012436
1923.3063,0.012239
1925.1700,0.011660
1927.0337,0.011615
1928.8973,0.011897
1930.7610,0.012016
1932.6247,0.011687
1934.4883,0.011780
1936.3520,0.011976
1938.2157,0.012514
1940.0793,0.012312
1941.9430,0.011430
1943.8067,0.010316
1945.6704,0.010277
1947.5340,0.010194
1949.3977,0.010568
1951.2614,0.011025
1953.1250,0.011248
1954.9887,0.010433
1956.8524,0.009960
1958.7160,0.009062
1960.5797,0.008634
1962.4434,0.007892
1964.3070,0.007740
1966.1707,0.006746
1968.0344,0.005128
1969.8980,0.004501
1971.7617,0.005451
1973.6254,0.005405
1975.4891,0.005389
1977.3527,0.005211
1979.2164,0.006283
1981.0801,0.007333
1982.9437,0.008547
1984.8074,0.008189
1986.6711,0.008368
1988.5347,0.008733
1990.3984,0.008788
1992.2621,0.008038
1994.1257,0.008313
1995.9894,0.008851
1997.8531,0.009513
1999.7167,0.009744
2001.5804,0.010309
2003.4441,0.009792
2005.3078,0.008783
2007.1714,0.007469
2009.0351,0.007669
2010.8988,0.007808
2012.7624,0.007783
2014.6261,0.006840
2016.4898,0.006454
2018.3534,0.006892
2020.2171,0.007153
2022.0808,0.005758
2023.9444,0.005979
2025.8081,0.005376
2027.6718,0.005940
2029.5355,0.006650
2031.3991,0.008122
2033.2628,0.007775
2035.1265,0.007440
2036.9901,0.006883
2038.8538,0.007359
2040.7175,0.008245
2042.5811,0.009056
2044.4448,0.008976
2046.3085,0.009917
2048.1721,0.010838
2050.0358,0.011797
2051.8995,0.012119
2053.7631,0.012582
2055.6268,0.012557
2057.4905,0.012145
2059.3542,0.012110
2061.2178,0.012748
2063.0815,0.013327
2064.9452,0.013631
2066.8088,0.013237
2068.6725,0.013379
2070.5362,0.013749
2072.3998,0.014304
2074.2635,0.014239
2076.1272,0.014477
2077.9908,0.014102
2079.8545,0.014352
2081.7182,0.014511
2083.5819,0.014690
2085.4455,0.015392
2087.3092,0.015744
2089.1729,0.015759
2091.0365,0.015746
2092.9002,0.015225
2094.7639,0.014601
2096.6275,0.014369
2098.4912,0.015125
2100.3549,0.015162
2102.2185,0.015226
2104.0822,0.015016
2105.9459,0.015287
2107.8095,0.015554
2109.6732,0.015635
2111.5369,0.015967
2113.4006,0.016093
2115.2642,0.016069
2117.1279,0.016429
2118.9916,0.016095
2120.8552,0.015800
2122.7189,0.015874
2124.5826,0.015648
2126.4462,0.015045
2128.3099,0.015117
2130.1736,0.015291
2132.0372,0.015162
2133.9009,0.014824
2135.7646,0.014493
2137.6282,0.014000
2139.4919,0.013644
2141.3556,0.012748
2143.2193,0.011892
2145.0829,0.011514
2146.9466,0.012585
2148.8103,0.012006
2150.6739,0.010351
2152.5376,0.010349
2154.4013,0.010610
2156.2649,0.009249
2158.1286,0.007076
2159.9923,0.005653
2161.8559,0.007106
2163.7196,0.008855
2165.5833,0.009859
2167.4470,0.010417
2169.3106,0.011221
2171.1743,0.011305
2173.0380,0.010829
2174.9016,0.011135
2176.7653,0.012300
2178.6290,0.010675
2180.4926,0.010066
2182.3563,0.010510
2184.2200,0.011435
2186.0836,0.012689
2187.9473,0.013497
2189.8110,0.012962
2191.6746,0.013584
2193.5383,0.014319
2195.4020,0.013513
2197.2657,0.012689
2199.1293,0.013698
2200.9930,0.014941
2202.8567,0.014925
2204.7203,0.014506
2206.5840,0.014810
2208.4477,0.014478
2210.3113,0.014686
2212.1750,0.014659
2214.0387,0.014905
2215.9023,0.015280
2217.7660,0.016141
2219.6297,0.016373
2221.4934,0.016006
2223.3570,0.015052
2225.2207,0.015395
2227.0844,0.016467
2228.9480,0.017637
2230.8117,0.016918
2232.6754,0.016797
2234.5390,0.016674
2236.4027,0.016996
2238.2664,0.018039
2240.1300,0.018463
2241.9937,0.017637
2243.8574,0.017903
2245.7210,0.018062
2247.5847,0.018350
2249.4484,0.018425
2251.3121,0.017734
2253.1757,0.017697
2255.0394,0.018344
2256.9031,0.018233
2258.7667,0.018623
2260.6304,0.019411
2262.4941,0.019518
2264.3577,0.019434
2266.2214,0.019966
2268.0851,0.019739
2269.9487,0.019459
2271.8124,0.020182
2273.6761,0.020667
2275.5397,0.020955
2277.4034,0.021213
2279.2671,0.021369
2281.1308,0.022015
2282.9944,0.022408
2284.8581,0.022802
2286.7218,0.022646
2288.5854,0.022625
2290.4491,0.022667
2292.3128,0.022623
2294.1764,0.022801
2296.0401,0.022852
2297.9038,0.023067
2299.7674,0.023191
2301.6311,0.022998
2303.4948,0.022963
2305.3585,0.022948
2307.2221,0.022905
2309.0858,0.022868
2310.9495,0.022973
2312.8131,0.023230
2314.6768,0.023202
2316.5405,0.022900
2318.4041,0.022821
2320.2678,0.023110
2322.1315,0.023342
2323.9951,0.023593
2325.8588,0.023215
2327.7225,0.022353
2329.5861,0.022163
2331.4498,0.022220
2333.3135,0.022115
2335.1772,0.021937
2337.0408,0.021982
2338.9045,0.022130
2340.7682,0.022416
2342.6318,0.022756
2344.4955,0.022967
2346.3592,0.022641
2348.2228,0.022156
2350.0865,0.021894
2351.9502,0.022102
2353.8138,0.022121
2355.6775,0.021739
2357.5412,0.021409
2359.4049,0.021663
2361.2685,0.021847
2363.1322,0.021999
2364.9959,0.022432
2366.8595,0.022594
2368.7232,0.022506
2370.5869,0.022710
2372.4505,0.022957
2374.3142,0.023083
2376.1779,0.023457
2378.0415,0.023544
2379.9052,0.023340
2381.7689,0.023291
2383.6325,0.023341
2385.4962,0.023392
2387.3599,0.023237
2389.2236,0.023317
2391.0872,0.023253
2392.9509,0.023405
2394.8146,0.023434
2396.6782,0.023470
2398.5419,0.023545
2400.4056,0.023598
2402.2692,0.023720
2404.1329,0.023582
2405.9966,0.023449
2407.8602,0.023458
2409.7239,0.023474
2411.5876,0.023691
2413.4512,0.024102
2415.3149,0.024484
2417.1786,0.024303
2419.0423,0.024100
2420.9059,0.024298
2422.7696,0.024524
2424.6333,0.024379
2426.4969,0.024437
2428.3606,0.024546
2430.2243,0.024747
2432.0879,0.024999
2433.9516,0.025062
2435.8153,0.024954
2437.6789,0.024921
2439.5426,0.024711
2441.4063,0.024277
2443.2700,0.024550
2445.1336,0.024919
2446.9973,0.025073
2448.8610,0.024989
2450.7246,0.025024
2452.5883,0.024873
2454.4520,0.024741
2456.3156,0.024886
2458.1793,0.024890
2460.0430,0.024848
2461.9066,0.024505
2463.7703,0.024404
2465.6340,0.024466
2467.4976,0.024393
2469.3613,0.024444
2471.2250,0.024422
2473.0887,0.024532
2474.9523,0.024688
2476.8160,0.024822
2478.6797,0.024965
2480.5433,0.024948
2482.4070,0.025003
2484.2707,0.024984
2486.1343,0.024839
2487.9980,0.025048
2489.8617,0.025344
2491.7253,0.025528
2493.5890,0.025631
2495.4527,0.025861
2497.3164,0.026084
2499.1800,0.026133
2501.0437,0.026262
2502.9074,0.026255
2504.7710,0.026125
2506.6347,0.026121
2508.4984,0.026094
2510.3620,0.025898
2512.2257,0.025872
2514.0894,0.026005
2515.9530,0.026031
2517.8167,0.026259
2519.6804,0.026603
2521.5440,0.026694
2523.4077,0.026709
2525.2714,0.027066
2527.1351,0.027033
