Wavenumber,Intensity
650.4205,0.210266
652.2841,0.215885
654.1478,0.221024
656.0115,0.227714
657.8751,0.238231
659.7388,0.248065
661.6025,0.260189
663.4661,0.274687
665.3298,0.287260
667.1935,0.294096
669.0571,0.288164
670.9208,0.272685
672.7845,0.256343
674.6481,0.240502
676.5118,0.229001
678.3755,0.222412
680.2392,0.219505
682.1028,0.214019
683.9665,0.204361
685.8302,0.192467
687.6938,0.182910
689.5575,0.175930
691.4212,0.169277
693.2848,0.161870
695.1485,0.156032
697.0122,0.152410
698.8758,0.150327
700.7395,0.149094
702.6032,0.148171
704.4669,0.146729
706.3305,0.144053
708.1942,0.139141
710.0579,0.132665
711.9215,0.126794
713.7852,0.122327
715.6489,0.117997
717.5125,0.114236
719.3762,0.111489
721.2399,0.109793
723.1035,0.108539
724.9672,0.107906
726.8309,0.107938
728.6945,0.109498
730.5582,0.112305
732.4219,0.116513
734.2856,0.123967
736.1492,0.138938
738.0129,0.162190
739.8766,0.185807
741.7402,0.200995
743.6039,0.193209
745.4676,0.154575
747.3312,0.119060
749.1949,0.105191
751.0586,0.099905
752.9222,0.098334
754.7859,0.094375
756.6496,0.085323
758.5132,0.079821
760.3769,0.079111
762.2406,0.081364
764.1043,0.085043
765.9679,0.088761
767.8316,0.089953
769.6953,0.087572
771.5589,0.085689
773.4226,0.086580
775.2863,0.088808
777.1499,0.091464
779.0136,0.093679
780.8773,0.094886
782.7409,0.095463
784.6046,0.096775
786.4683,0.098795
788.3320,0.100609
790.1956,0.102405
792.0593,0.104527
793.9230,0.106736
795.7866,0.109377
797.6503,0.112702
799.5140,0.116801
801.3776,0.120474
803.2413,0.121965
805.1050,0.120542
806.9686,0.118062
808.8323,0.116472
810.6960,0.115486
812.5596,0.114258
814.4233,0.112994
816.2870,0.111794
818.1507,0.110910
820.0143,0.110354
821.8780,0.110307
823.7417,0.111135
825.6053,0.112810
827.4690,0.115370
829.3327,0.117529
831.1963,0.115330
833.0600,0.108806
834.9237,0.103730
836.7873,0.102871
838.6510,0.103358
840.5147,0.103313
842.3784,0.104229
844.2420,0.107700
846.1057,0.113168
847.9694,0.117925
849.8330,0.118758
851.6967,0.116072
853.5604,0.116141
855.4240,0.120269
857.2877,0.122990
859.1514,0.122932
861.0150,0.123305
862.8787,0.125961
864.7424,0.128266
866.6060,0.126797
868.4697,0.123097
870.3334,0.121493
872.1971,0.123087
874.0607,0.125950
875.9244,0.127795
877.7881,0.127785
879.6517,0.127391
881.5154,0.128376
883.3791,0.130023
885.2427,0.131309
887.1064,0.132518
888.9701,0.133994
890.8337,0.135737
892.6974,0.137698
894.5611,0.139761
896.4247,0.141900
898.2884,0.144346
900.1521,0.147269
902.0158,0.150506
903.8794,0.154102
905.7431,0.158333
907.6068,0.163375
909.4704,0.169673
911.3341,0.178107
913.1978,0.188336
915.0614,0.196025
916.9251,0.194233
918.7888,0.184192
920.6524,0.174318
922.5161,0.168491
924.3798,0.166104
926.2435,0.166184
928.1071,0.167312
929.9708,0.168043
931.8345,0.168587
933.6981,0.169977
935.5618,0.172229
937.4255,0.174874
939.2891,0.177354
941.1528,0.179693
943.0165,0.182297
944.8801,0.184986
946.7438,0.187461
948.6075,0.189897
950.4711,0.192478
952.3348,0.195302
954.1985,0.198324
956.0622,0.201278
957.9258,0.204357
959.7895,0.207740
961.6532,0.211172
963.5168,0.214433
965.3805,0.217448
967.2442,0.220831
969.1078,0.225062
970.9715,0.229770
972.8352,0.235128
974.6988,0.242208
976.5625,0.252300
978.4262,0.267170
980.2899,0.286074
982.1535,0.293401
984.0172,0.273772
985.8809,0.249006
987.7445,0.239456
989.6082,0.238879
991.4719,0.239672
993.3355,0.241451
995.1992,0.244461
997.0629,0.248076
998.9265,0.251865
1000.7902,0.255848
1002.6539,0.260357
1004.5175,0.265281
1006.3812,0.268354
1008.2449,0.267018
1010.1086,0.263059
1011.9722,0.259332
1013.8359,0.255898
1015.6996,0.251859
1017.5632,0.246268
1019.4269,0.238976
1021.2906,0.230617
1023.1542,0.221557
1025.0179,0.212331
1026.8816,0.203647
1028.7452,0.195584
1030.6089,0.188106
1032.4726,0.181377
1034.3362,0.175309
1036.1999,0.169674
1038.0636,0.164672
1039.9273,0.160305
1041.7909,0.156314
1043.6546,0.152784
1045.5183,0.149582
1047.3819,0.146142
1049.2456,0.141399
1051.1093,0.134194
1052.9729,0.125300
1054.8366,0.117542
1056.7003,0.112536
1058.5639,0.109931
1060.4276,0.108837
1062.2913,0.108135
1064.1550,0.107618
1066.0186,0.107647
1067.8823,0.107494
1069.7460,0.107202
1071.6096,0.108060
1073.4733,0.110334
1075.3370,0.112709
1077.2006,0.113021
1079.0643,0.111161
1080.9280,0.109670
1082.7916,0.109970
1084.6553,0.111437
1086.5190,0.113561
1088.3826,0.116272
1090.2463,0.119522
1092.1100,0.123360
1093.9737,0.127712
1095.8373,0.132159
1097.7010,0.135817
1099.5647,0.138107
1101.4283,0.139210
1103.2920,0.139057
1105.1557,0.137368
1107.0193,0.134315
1108.8830,0.129865
1110.7467,0.123622
1112.6103,0.116060
1114.4740,0.108155
1116.3377,0.100199
1118.2014,0.092608
1120.0650,0.086270
1121.9287,0.081672
1123.7924,0.078794
1125.6560,0.077175
1127.5197,0.076121
1129.3834,0.075082
1131.2470,0.073711
1133.1107,0.072023
1134.9744,0.070778
1136.8380,0.070272
1138.7017,0.070601
1140.5654,0.071873
1142.4290,0.073211
1144.2927,0.073258
1146.1564,0.071749
1148.0201,0.069486
1149.8837,0.067529
1151.7474,0.067193
1153.6111,0.068880
1155.4747,0.070842
1157.3384,0.070779
1159.2021,0.068571
1161.0657,0.066006
1162.9294,0.064149
1164.7931,0.063034
1166.6567,0.062900
1168.5204,0.064021
1170.3841,0.065998
1172.2477,0.067674
1174.1114,0.067661
1175.9751,0.065389
1177.8388,0.062034
1179.7024,0.059165
1181.5661,0.057364
1183.4298,0.056563
1185.2934,0.056451
1187.1571,0.056723
1189.0208,0.057068
1190.8844,0.057385
1192.7481,0.057627
1194.6118,0.057809
1196.4754,0.058010
1198.3391,0.058332
1200.2028,0.058850
1202.0665,0.059588
1203.9301,0.060313
1205.7938,0.060846
1207.6575,0.061165
1209.5211,0.061384
1211.3848,0.061654
1213.2485,0.062151
1215.1121,0.062847
1216.9758,0.063675
1218.8395,0.064632
1220.7031,0.065798
1222.5668,0.067429
1224.4305,0.070033
1226.2941,0.073647
1228.1578,0.076956
1230.0215,0.077790
1231.8852,0.074719
1233.7488,0.068846
1235.6125,0.064226
1237.4762,0.062925
1239.3398,0.063526
1241.2035,0.064695
1243.0672,0.066081
1244.9308,0.067328
1246.7945,0.068341
1248.6582,0.069391
1250.5218,0.070242
1252.3855,0.070243
1254.2492,0.069823
1256.1129,0.069696
1257.9765,0.069866
1259.8402,0.070287
1261.7039,0.070948
1263.5675,0.071664
1265.4312,0.072443
1267.2949,0.073200
1269.1585,0.073900
1271.0222,0.074700
1272.8859,0.075624
1274.7495,0.076566
1276.6132,0.077564
1278.4769,0.078280
1280.3405,0.078638
1282.2042,0.079013
1284.0679,0.079877
1285.9316,0.081269
1287.7952,0.083416
1289.6589,0.086523
1291.5226,0.090071
1293.3862,0.093104
1295.2499,0.095099
1297.1136,0.097230
1298.9772,0.100793
1300.8409,0.105768
1302.7046,0.111336
1304.5682,0.116183
1306.4319,0.118357
1308.2956,0.114494
1310.1592,0.104011
1312.0229,0.093114
1313.8866,0.086941
1315.7503,0.084046
1317.6139,0.080834
1319.4776,0.077928
1321.3413,0.077692
1323.2049,0.079920
1325.0686,0.083305
1326.9323,0.086839
1328.7959,0.090259
1330.6596,0.094021
1332.5233,0.098519
1334.3869,0.103224
1336.2506,0.107106
1338.1143,0.109682
1339.9780,0.110500
1341.8416,0.109392
1343.7053,0.109848
1345.5690,0.114157
1347.4326,0.121006
1349.2963,0.127914
1351.1600,0.131021
1353.0236,0.130927
1354.8873,0.133050
1356.7510,0.134538
1358.6146,0.126914
1360.4783,0.112641
1362.3420,0.101256
1364.2056,0.096596
1366.0693,0.096171
1367.9330,0.098264
1369.7967,0.101492
1371.6603,0.104512
1373.5240,0.109066
1375.3877,0.114314
1377.2513,0.117705
1379.1150,0.121833
1380.9787,0.127119
1382.8423,0.132380
1384.7060,0.138180
1386.5697,0.145954
1388.4333,0.154926
1390.2970,0.160272
1392.1607,0.164346
1394.0244,0.168887
1395.8880,0.170705
1397.7517,0.168465
1399.6154,0.164369
1401.4790,0.159787
1403.3427,0.155700
1405.2064,0.149539
1407.0700,0.139565
1408.9337,0.128586
1410.7974,0.117946
1412.6610,0.109451
1414.5247,0.103533
1416.3884,0.099269
1418.2520,0.096966
1420.1157,0.096262
1421.9794,0.094260
1423.8431,0.087044
1425.7067,0.074398
1427.5704,0.064793
1429.4341,0.059319
1431.2977,0.057175
1433.1614,0.057036
1435.0251,0.058762
1436.8887,0.062371
1438.7524,0.064189
1440.6161,0.064940
1442.4797,0.067302
1444.3434,0.070572
1446.2071,0.075049
1448.0707,0.079918
1449.9344,0.081094
1451.7981,0.079715
1453.6618,0.081719
1455.5254,0.088897
1457.3891,0.091610
1459.2528,0.075804
1461.1164,0.065304
1462.9801,0.061535
1464.8438,0.061404
1466.7074,0.061159
1468.5711,0.059872
1470.4348,0.059886
1472.2984,0.062023
1474.1621,0.064093
1476.0258,0.063899
1477.8895,0.063982
1479.7531,0.064382
1481.6168,0.065774
1483.4805,0.067094
1485.3441,0.068213
1487.2078,0.069779
1489.0715,0.071554
1490.9351,0.071943
1492.7988,0.070619
1494.6625,0.070643
1496.5261,0.073745
1498.3898,0.076603
1500.2535,0.076855
1502.1171,0.076046
1503.9808,0.075930
1505.8445,0.079693
1507.7082,0.089383
1509.5718,0.088161
1511.4355,0.086680
1513.2992,0.086836
1515.1628,0.088006
1517.0265,0.089998
1518.8902,0.091211
1520.7538,0.093434
1522.6175,0.097416
1524.4812,0.097269
1526.3448,0.098721
1528.2085,0.100031
1530.0722,0.099979
1531.9359,0.101375
1533.7995,0.104855
1535.6632,0.104655
1537.5269,0.103818
1539.3905,0.108200
1541.2542,0.116890
1543.1179,0.117934
1544.9815,0.119457
1546.8452,0.120478
1548.7089,0.122528
1550.5725,0.126600
1552.4362,0.129497
1554.2999,0.131087
1556.1635,0.133312
1558.0272,0.138660
1559.8909,0.152704
1561.7546,0.149131
1563.6182,0.148178
1565.4819,0.151131
1567.3456,0.154729
1569.2092,0.159644
1571.0729,0.164704
1572.9366,0.165168
1574.8002,0.168194
1576.6639,0.174284
1578.5276,0.176406
1580.3912,0.176434
1582.2549,0.177929
1584.1186,0.178275
1585.9822,0.177670
1587.8459,0.176225
1589.7096,0.174262
1591.5733,0.171308
1593.4369,0.168201
1595.3006,0.164728
1597.1643,0.160756
1599.0279,0.156645
1600.8916,0.152914
1602.7553,0.149271
1604.6189,0.145669
1606.4826,0.142235
1608.3463,0.139103
1610.2099,0.135956
1612.0736,0.132463
1613.9373,0.129291
1615.8010,0.125700
1617.6646,0.118025
1619.5283,0.111158
1621.3920,0.107030
1623.2556,0.102259
1625.1193,0.096807
1626.9830,0.092076
1628.8466,0.086743
1630.7103,0.081063
1632.5740,0.076806
1634.4376,0.073529
1636.3013,0.070369
1638.1650,0.068692
1640.0286,0.069098
1641.8923,0.070073
1643.7560,0.071983
1645.6197,0.075276
1647.4833,0.080621
1649.3470,0.082858
1651.2107,0.084890
1653.0743,0.091003
1654.9380,0.097244
1656.8017,0.096652
1658.6653,0.096961
1660.5290,0.097147
1662.3927,0.096012
1664.2563,0.092459
1666.1200,0.088842
1667.9837,0.084741
1669.8474,0.077971
1671.7110,0.070168
1673.5747,0.065761
1675.4384,0.062261
1677.3020,0.059954
1679.1657,0.059820
1681.0294,0.061050
1682.8930,0.063412
1684.7567,0.066726
1686.6204,0.067048
1688.4840,0.066679
1690.3477,0.065817
1692.2114,0.064258
1694.0750,0.062747
1695.9387,0.060658
1697.8024,0.057726
1699.6661,0.055635
1701.5297,0.050413
1703.3934,0.047178
1705.2571,0.043075
1707.1207,0.037417
1708.9844,0.033265
1710.8481,0.030496
1712.7117,0.028207
1714.5754,0.027000
1716.4391,0.025754
1718.3027,0.024400
1720.1664,0.023260
1722.0301,0.022843
1723.8937,0.021949
1725.7574,0.020827
1727.6211,0.019523
1729.4848,0.018650
1731.3484,0.017768
1733.2121,0.017439
1735.0758,0.016147
1736.9394,0.015506
1738.8031,0.015462
1740.6668,0.015389
1742.5304,0.014731
1744.3941,0.014636
1746.2578,0.014582
1748.1214,0.014728
1749.9851,0.014592
1751.8488,0.014437
1753.7125,0.014146
1755.5761,0.014193
1757.4398,0.014036
1759.3035,0.014008
1761.1671,0.014033
1763.0308,0.014163
1764.8945,0.014030
1766.7581,0.014274
1768.6218,0.014171
1770.4855,0.014194
1772.3491,0.014041
1774.2128,0.013830
1776.0765,0.013527
1777.9401,0.013724
1779.8038,0.013811
1781.6675,0.013802
1783.5312,0.013643
1785.3948,0.013753
1787.2585,0.013723
1789.1222,0.013995
1790.9858,0.014413
1792.8495,0.014581
1794.7132,0.014179
1796.5768,0.014159
1798.4405,0.014345
1800.3042,0.014793
1802.1678,0.014766
1804.0315,0.014703
1805.8952,0.014824
1807.7589,0.015108
1809.6225,0.015199
1811.4862,0.015223
1813.3499,0.014910
1815.2135,0.014766
1817.0772,0.014543
1818.9409,0.014681
1820.8045,0.014814
1822.6682,0.015100
1824.5319,0.014965
1826.3955,0.014525
1828.2592,0.014449
1830.1229,0.014979
1831.9865,0.014813
1833.8502,0.014507
1835.7139,0.014419
1837.5776,0.014403
1839.4412,0.014321
1841.3049,0.014431
1843.1686,0.014771
1845.0322,0.014786
1846.8959,0.014269
1848.7596,0.014563
1850.6232,0.014858
1852.4869,0.014832
1854.3506,0.014629
1856.2142,0.014636
1858.0779,0.014508
1859.9416,0.014722
1861.8052,0.014793
1863.6689,0.014705
1865.5326,0.014783
1867.3963,0.015388
1869.2599,0.015072
1871.1236,0.014563
1872.9873,0.014523
1874.8509,0.014680
1876.7146,0.014537
1878.5783,0.015031
1880.4419,0.015486
1882.3056,0.015445
1884.1693,0.015319
1886.0329,0.015635
1887.8966,0.015632
1889.7603,0.015224
1891.6240,0.014524
1893.4876,0.014302
1895.3513,0.014080
1897.2150,0.014263
1899.0786,0.014397
1900.9423,0.014530
1902.8060,0.014519
1904.6696,0.014468
1906.5333,0.014259
1908.3970,0.014519
1910.2606,0.014712
1912.1243,0.014726
1913.9880,0.014569
1915.8516,0.015136
1917.7153,0.015422
1919.5790,0.015345
1921.4427,0.014761
1923.3063,0.014487
1925.1700,0.014089
1927.0337,0.013889
1928.8973,0.013443
1930.7610,0.013591
1932.6247,0.013595
1934.4883,0.013724
1936.3520,0.012788
1938.2157,0.013031
1940.0793,0.013343
1941.9430,0.012966
1943.8067,0.012008
1945.6704,0.012181
1947.5340,0.012072
1949.3977,0.012128
1951.2614,0.011439
1953.1250,0.011319
1954.9887,0.011225
1956.8524,0.011117
1958.7160,0.009991
1960.5797,0.010042
1962.4434,0.008981
1964.3070,0.008914
1966.1707,0.009064
1968.0344,0.009051
1969.8980,0.006877
1971.7617,0.006411
1973.6254,0.006052
1975.4891,0.007038
1977.3527,0.006507
1979.2164,0.006857
1981.0801,0.006801
1982.9437,0.006969
1984.8074,0.007915
1986.6711,0.009444
1988.5347,0.009550
1990.3984,0.009580
1992.2621,0.009295
1994.1257,0.008835
1995.9894,0.009210
1997.8531,0.010891
1999.7167,0.010249
2001.5804,0.009629
2003.4441,0.010439
2005.3078,0.010485
2007.1714,0.007990
2009.0351,0.007718
2010.8988,0.007995
2012.7624,0.008880
2014.6261,0.007717
2016.4898,0.007050
2018.3534,0.006864
2020.2171,0.007698
2022.0808,0.007373
2023.9444,0.006509
2025.8081,0.005088
2027.6718,0.006170
2029.5355,0.007406
2031.3991,0.008704
2033.2628,0.008405
2035.1265,0.007916
2036.9901,0.007382
2038.8538,0.008897
2040.7175,0.010344
2042.5811,0.010398
2044.4448,0.010452
2046.3085,0.012245
2048.1721,0.012999
2050.0358,0.014075
2051.8995,0.014466
2053.7631,0.015021
2055.6268,0.015765
2057.4905,0.016525
2059.3542,0.016882
2061.2178,0.017017
2063.0815,0.016857
2064.9452,0.017561
2066.8088,0.017203
2068.6725,0.017483
2070.5362,0.018259
2072.3998,0.018780
2074.2635,0.018654
2076.1272,0.018776
2077.9908,0.018332
2079.8545,0.018548
2081.7182,0.019588
2083.5819,0.019935
2085.4455,0.019650
2087.3092,0.019711
2089.1729,0.019494
2091.0365,0.020058
2092.9002,0.019529
2094.7639,0.018938
2096.6275,0.019381
2098.4912,0.019544
2100.3549,0.019317
2102.2185,0.019487
2104.0822,0.019852
2105.9459,0.019703
2107.8095,0.018694
2109.6732,0.018812
2111.5369,0.019921
2113.4006,0.020252
2115.2642,0.019700
2117.1279,0.019441
2118.9916,0.019317
2120.8552,0.019623
2122.7189,0.019085
2124.5826,0.018562
2126.4462,0.018668
2128.3099,0.018253
2130.1736,0.017362
2132.0372,0.017355
2133.9009,0.016979
2135.7646,0.016912
2137.6282,0.016450
2139.4919,0.015840
2141.3556,0.014327
2143.2193,0.013624
2145.0829,0.013707
2146.9466,0.013781
2148.8103,0.013181
2150.6739,0.012369
2152.5376,0.010636
2154.4013,0.010902
2156.2649,0.009605
2158.1286,0.007202
2159.9923,0.005827
2161.8559,0.007672
2163.7196,0.008757
2165.5833,0.010135
2167.4470,0.011203
2169.3106,0.012263
2171.1743,0.012355
2173.0380,0.012626
2174.9016,0.012249
2176.7653,0.012787
2178.6290,0.012886
2180.4926,0.011994
2182.3563,0.011705
2184.2200,0.012386
2186.0836,0.013027
2187.9473,0.013918
2189.8110,0.013693
2191.6746,0.014279
2193.5383,0.015074
2195.4020,0.014784
2197.2657,0.014336
2199.1293,0.015664
2200.9930,0.016767
2202.8567,0.016392
2204.7203,0.015697
2206.5840,0.015859
2208.4477,0.016960
2210.3113,0.017293
2212.1750,0.017233
2214.0387,0.018157
2215.9023,0.018493
2217.7660,0.018659
2219.6297,0.018069
2221.4934,0.017800
2223.3570,0.017916
2225.2207,0.018533
2227.0844,0.019399
2228.9480,0.019854
2230.8117,0.019542
2232.6754,0.019740
2234.5390,0.020200
2236.4027,0.020285
2238.2664,0.020960
2240.1300,0.020970
2241.9937,0.020305
2243.8574,0.020803
2245.7210,0.021947
2247.5847,0.022829
2249.4484,0.022562
2251.3121,0.022893
2253.1757,0.022941
2255.0394,0.022743
2256.9031,0.023230
2258.7667,0.023691
2260.6304,0.023241
2262.4941,0.023368
2264.3577,0.024409
2266.2214,0.025011
2268.0851,0.025119
2269.9487,0.025084
2271.8124,0.025119
2273.6761,0.025671
2275.5397,0.026582
2277.4034,0.027253
2279.2671,0.027224
2281.1308,0.027629
2282.9944,0.027963
2284.8581,0.028017
2286.7218,0.028071
2288.5854,0.028326
2290.4491,0.028544
2292.3128,0.028771
2294.1764,0.028991
2296.0401,0.029057
2297.9038,0.028801
2299.7674,0.028595
2301.6311,0.028851
2303.4948,0.029430
2305.3585,0.029948
2307.2221,0.030013
2309.0858,0.030083
2310.9495,0.030255
2312.8131,0.029787
2314.6768,0.029528
2316.5405,0.030046
2318.4041,0.030500
2320.2678,0.030462
2322.1315,0.030376
2323.9951,0.030538
2325.8588,0.030350
2327.7225,0.029647
2329.5861,0.029563
2331.4498,0.029808
2333.3135,0.029900
2335.1772,0.029861
2337.0408,0.029867
2338.9045,0.029949
2340.7682,0.030462
2342.6318,0.030844
2344.4955,0.030833
2346.3592,0.030978
2348.2228,0.030859
2350.0865,0.030233
2351.9502,0.030164
2353.8138,0.030305
2355.6775,0.030169
2357.5412,0.030182
2359.4049,0.030510
2361.2685,0.030689
2363.1322,0.030806
2364.9959,0.031163
2366.8595,0.031829
2368.7232,0.031576
2370.5869,0.031462
2372.4505,0.032416
2374.3142,0.033003
2376.1779,0.033040
2378.0415,0.033044
2379.9052,0.032816
2381.7689,0.032862
2383.6325,0.033055
2385.4962,0.032767
2387.3599,0.032564
2389.2236,0.032916
2391.0872,0.033387
2392.9509,0.033498
2394.8146,0.033399
2396.6782,0.033331
2398.5419,0.033292
2400.4056,0.033118
2402.2692,0.033180
2404.1329,0.033588
2405.9966,0.033575
2407.8602,0.033447
2409.7239,0.033703
2411.5876,0.033761
2413.4512,0.033616
2415.3149,0.033634
2417.1786,0.033736
2419.0423,0.033821
2420.9059,0.033839
2422.7696,0.033538
2424.6333,0.033578
2426.4969,0.034099
2428.3606,0.034448
2430.2243,0.034455
2432.0879,0.034139
2433.9516,0.034177
2435.8153,0.034340
2437.6789,0.034407
2439.5426,0.034330
2441.4063,0.034210
2443.2700,0.034298
2445.1336,0.034776
2446.9973,0.034950
2448.8610,0.034687
2450.7246,0.034630
2452.5883,0.034915
2454.4520,0.034925
2456.3156,0.034661
2458.1793,0.034682
2460.0430,0.034704
2461.9066,0.034793
2463.7703,0.035106
2465.6340,0.035333
2467.4976,0.035142
2469.3613,0.034913
2471.2250,0.034851
2473.0887,0.035064
2474.9523,0.035245
2476.8160,0.035235
2478.6797,0.035244
2480.5433,0.035733
2482.4070,0.035909
2484.2707,0.035831
2486.1343,0.035868
2487.9980,0.035644
2489.8617,0.035337
2491.7253,0.035669
2493.5890,0.036046
2495.4527,0.036020
2497.3164,0.035653
2499.1800,0.035505
2501.0437,0.035861
2502.9074,0.036128
2504.7710,0.036222
2506.6347,0.036368
2508.4984,0.036546
2510.3620,0.036320
2512.2257,0.036281
2514.0894,0.036438
2515.9530,0.036675
2517.8167,0.036891
2519.6804,0.036845
2521.5440,0.036752
2523.4077,0.036416
2525.2714,0.036386
2527.1351,0.036853
