Wavenumber,Intensity
650.4205,0.273503
652.2841,0.277470
654.1478,0.283654
656.0115,0.292994
657.8751,0.301983
659.7388,0.309244
661.6025,0.320069
663.4661,0.332719
665.3298,0.343387
667.1935,0.352269
669.0571,0.346823
670.9208,0.328461
672.7845,0.310534
674.6481,0.293810
676.5118,0.281775
678.3755,0.273162
680.2392,0.269451
682.1028,0.264171
683.9665,0.253448
685.8302,0.241998
687.6938,0.231995
689.5575,0.224077
691.4212,0.217864
693.2848,0.210681
695.1485,0.204125
697.0122,0.200151
698.8758,0.198545
700.7395,0.198088
702.6032,0.197950
704.4669,0.195314
706.3305,0.189718
708.1942,0.182418
710.0579,0.173687
711.9215,0.164835
713.7852,0.156373
715.6489,0.148224
717.5125,0.142512
719.3762,0.138551
721.2399,0.135414
723.1035,0.132643
724.9672,0.130678
726.8309,0.129549
728.6945,0.128817
730.5582,0.128775
732.4219,0.130300
734.2856,0.134815
736.1492,0.146349
738.0129,0.166893
739.8766,0.190651
741.7402,0.209341
743.6039,0.207808
745.4676,0.174916
747.3312,0.141290
749.1949,0.127582
751.0586,0.122105
752.9222,0.119620
754.7859,0.115992
756.6496,0.107486
758.5132,0.101796
760.3769,0.101607
762.2406,0.103561
764.1043,0.106557
765.9679,0.109912
767.8316,0.111041
769.6953,0.108951
771.5589,0.107365
773.4226,0.108333
775.2863,0.110774
777.1499,0.113843
779.0136,0.116148
780.8773,0.117765
782.7409,0.118784
784.6046,0.119925
786.4683,0.122218
788.3320,0.124882
790.1956,0.127387
792.0593,0.130005
793.9230,0.133079
795.7866,0.136822
797.6503,0.140736
799.5140,0.145030
801.3776,0.149169
803.2413,0.151022
805.1050,0.149867
806.9686,0.147723
808.8323,0.146055
810.6960,0.144464
812.5596,0.142202
814.4233,0.139500
816.2870,0.136979
818.1507,0.135127
820.0143,0.133597
821.8780,0.132642
823.7417,0.132815
825.6053,0.134279
827.4690,0.137518
829.3327,0.140332
831.1963,0.136716
833.0600,0.126301
834.9237,0.117322
836.7873,0.114282
838.6510,0.113975
840.5147,0.113771
842.3784,0.114507
844.2420,0.117488
846.1057,0.122239
847.9694,0.126414
849.8330,0.127554
851.6967,0.125889
853.5604,0.125794
855.4240,0.129320
857.2877,0.132441
859.1514,0.132615
861.0150,0.132637
862.8787,0.134994
864.7424,0.137345
866.6060,0.136686
868.4697,0.134219
870.3334,0.133084
872.1971,0.134385
874.0607,0.137134
875.9244,0.139328
877.7881,0.139860
879.6517,0.139967
881.5154,0.141186
883.3791,0.143097
885.2427,0.144646
887.1064,0.146081
888.9701,0.147785
890.8337,0.149660
892.6974,0.151774
894.5611,0.153949
896.4247,0.156326
898.2884,0.159222
900.1521,0.162573
902.0158,0.166483
903.8794,0.171036
905.7431,0.176396
907.6068,0.183020
909.4704,0.191018
911.3341,0.201314
913.1978,0.214427
915.0614,0.224088
916.9251,0.219665
918.7888,0.203631
920.6524,0.189019
922.5161,0.181292
924.3798,0.178575
926.2435,0.178731
928.1071,0.180179
929.9708,0.181519
931.8345,0.182480
933.6981,0.183992
935.5618,0.186360
937.4255,0.188960
939.2891,0.191660
941.1528,0.194484
943.0165,0.197081
944.8801,0.199538
946.7438,0.202133
948.6075,0.204838
950.4711,0.207644
952.3348,0.210540
954.1985,0.213604
956.0622,0.216851
957.9258,0.220184
959.7895,0.223626
961.6532,0.227415
963.5168,0.231143
965.3805,0.234613
967.2442,0.238719
969.1078,0.243821
970.9715,0.249463
972.8352,0.256132
974.6988,0.265557
976.5625,0.279512
978.4262,0.300741
980.2899,0.328416
982.1535,0.338501
984.0172,0.307496
985.8809,0.269582
987.7445,0.255515
989.6082,0.255324
991.4719,0.257327
993.3355,0.260289
995.1992,0.264195
997.0629,0.268540
998.9265,0.273135
1000.7902,0.278012
1002.6539,0.283449
1004.5175,0.289460
1006.3812,0.293855
1008.2449,0.293842
1010.1086,0.290734
1011.9722,0.287208
1013.8359,0.283505
1015.6996,0.278832
1017.5632,0.272583
1019.4269,0.264689
1021.2906,0.255517
1023.1542,0.245697
1025.0179,0.235822
1026.8816,0.226515
1028.7452,0.218168
1030.6089,0.210687
1032.4726,0.204024
1034.3362,0.198135
1036.1999,0.192886
1038.0636,0.188385
1039.9273,0.184667
1041.7909,0.181611
1043.6546,0.179101
1045.5183,0.176610
1047.3819,0.173283
1049.2456,0.167782
1051.1093,0.158511
1052.9729,0.146596
1054.8366,0.136099
1056.7003,0.129601
1058.5639,0.126580
1060.4276,0.125382
1062.2913,0.124776
1064.1550,0.124515
1066.0186,0.124777
1067.8823,0.124987
1069.7460,0.125085
1071.6096,0.126140
1073.4733,0.128580
1075.3370,0.131356
1077.2006,0.132553
1079.0643,0.131665
1080.9280,0.130907
1082.7916,0.131815
1084.6553,0.133967
1086.5190,0.136904
1088.3826,0.140324
1090.2463,0.144435
1092.1100,0.149584
1093.9737,0.155570
1095.8373,0.161698
1097.7010,0.167256
1099.5647,0.171827
1101.4283,0.175460
1103.2920,0.177794
1105.1557,0.177929
1107.0193,0.175345
1108.8830,0.169347
1110.7467,0.159759
1112.6103,0.147963
1114.4740,0.135734
1116.3377,0.124069
1118.2014,0.113639
1120.0650,0.105287
1121.9287,0.099227
1123.7924,0.095319
1125.6560,0.092941
1127.5197,0.091126
1129.3834,0.089551
1131.2470,0.087874
1133.1107,0.085832
1134.9744,0.084009
1136.8380,0.083018
1138.7017,0.083061
1140.5654,0.084026
1142.4290,0.085240
1144.2927,0.085568
1146.1564,0.084480
1148.0201,0.082480
1149.8837,0.080680
1151.7474,0.080394
1153.6111,0.082032
1155.4747,0.084208
1157.3384,0.084721
1159.2021,0.083221
1161.0657,0.081423
1162.9294,0.080371
1164.7931,0.080152
1166.6567,0.081004
1168.5204,0.083333
1170.3841,0.086504
1172.2477,0.088895
1174.1114,0.088583
1175.9751,0.085007
1177.8388,0.079917
1179.7024,0.075556
1181.5661,0.072885
1183.4298,0.071789
1185.2934,0.071632
1187.1571,0.071868
1189.0208,0.072282
1190.8844,0.072636
1192.7481,0.072732
1194.6118,0.072769
1196.4754,0.073010
1198.3391,0.073518
1200.2028,0.074132
1202.0665,0.074863
1203.9301,0.075587
1205.7938,0.076171
1207.6575,0.076539
1209.5211,0.076779
1211.3848,0.077131
1213.2485,0.077672
1215.1121,0.078416
1216.9758,0.079349
1218.8395,0.080437
1220.7031,0.081560
1222.5668,0.083000
1224.4305,0.085485
1226.2941,0.089046
1228.1578,0.092455
1230.0215,0.093684
1231.8852,0.091324
1233.7488,0.086239
1235.6125,0.082138
1237.4762,0.080912
1239.3398,0.081473
1241.2035,0.082625
1243.0672,0.083954
1244.9308,0.085359
1246.7945,0.086686
1248.6582,0.087992
1250.5218,0.089038
1252.3855,0.089283
1254.2492,0.089201
1256.1129,0.089416
1257.9765,0.089808
1259.8402,0.090367
1261.7039,0.091299
1263.5675,0.092402
1265.4312,0.093618
1267.2949,0.094628
1269.1585,0.095306
1271.0222,0.095906
1272.8859,0.096663
1274.7495,0.097640
1276.6132,0.098843
1278.4769,0.099977
1280.3405,0.100909
1282.2042,0.101774
1284.0679,0.103003
1285.9316,0.105052
1287.7952,0.107924
1289.6589,0.111580
1291.5226,0.115895
1293.3862,0.120020
1295.2499,0.123363
1297.1136,0.127216
1298.9772,0.132714
1300.8409,0.139815
1302.7046,0.147809
1304.5682,0.154715
1306.4319,0.157192
1308.2956,0.149773
1310.1592,0.132221
1312.0229,0.113892
1313.8866,0.102984
1315.7503,0.098625
1317.6139,0.095834
1319.4776,0.093849
1321.3413,0.094431
1323.2049,0.097301
1325.0686,0.101401
1326.9323,0.105795
1328.7959,0.110037
1330.6596,0.114489
1332.5233,0.119434
1334.3869,0.124457
1336.2506,0.128840
1338.1143,0.132176
1339.9780,0.133693
1341.8416,0.132682
1343.7053,0.132691
1345.5690,0.136675
1347.4326,0.143583
1349.2963,0.151110
1351.1600,0.155392
1353.0236,0.156213
1354.8873,0.159148
1356.7510,0.161964
1358.6146,0.156287
1360.4783,0.144131
1362.3420,0.134837
1364.2056,0.131406
1366.0693,0.131194
1367.9330,0.134170
1369.7967,0.138646
1371.6603,0.142510
1373.5240,0.148304
1375.3877,0.155071
1377.2513,0.159478
1379.1150,0.164986
1380.9787,0.172245
1382.8423,0.179356
1384.7060,0.187213
1386.5697,0.197730
1388.4333,0.210281
1390.2970,0.217530
1392.1607,0.222534
1394.0244,0.227222
1395.8880,0.227467
1397.7517,0.221697
1399.6154,0.213060
1401.4790,0.204949
1403.3427,0.197236
1405.2064,0.185926
1407.0700,0.169424
1408.9337,0.152337
1410.7974,0.136522
1412.6610,0.124882
1414.5247,0.117883
1416.3884,0.114492
1418.2520,0.114691
1420.1157,0.117418
1421.9794,0.116901
1423.8431,0.108850
1425.7067,0.093867
1427.5704,0.081457
1429.4341,0.074434
1431.2977,0.072130
1433.1614,0.072193
1435.0251,0.074298
1436.8887,0.078618
1438.7524,0.081390
1440.6161,0.082134
1442.4797,0.084672
1444.3434,0.088010
1446.2071,0.092364
1448.0707,0.096860
1449.9344,0.097682
1451.7981,0.095139
1453.6618,0.095737
1455.5254,0.102307
1457.3891,0.107342
1459.2528,0.094244
1461.1164,0.083506
1462.9801,0.079535
1464.8438,0.079281
1466.7074,0.078925
1468.5711,0.077082
1470.4348,0.076930
1472.2984,0.079101
1474.1621,0.081464
1476.0258,0.080983
1477.8895,0.081213
1479.7531,0.081487
1481.6168,0.082901
1483.4805,0.084287
1485.3441,0.085263
1487.2078,0.087245
1489.0715,0.089727
1490.9351,0.090559
1492.7988,0.089394
1494.6625,0.089097
1496.5261,0.092496
1498.3898,0.095943
1500.2535,0.096327
1502.1171,0.095162
1503.9808,0.094860
1505.8445,0.099105
1507.7082,0.110948
1509.5718,0.109996
1511.4355,0.108130
1513.2992,0.108636
1515.1628,0.110049
1517.0265,0.112644
1518.8902,0.114550
1520.7538,0.116060
1522.6175,0.121172
1524.4812,0.121201
1526.3448,0.122928
1528.2085,0.124460
1530.0722,0.124452
1531.9359,0.126122
1533.7995,0.130489
1535.6632,0.130837
1537.5269,0.129333
1539.3905,0.134941
1541.2542,0.146075
1543.1179,0.147327
1544.9815,0.149375
1546.8452,0.151072
1548.7089,0.153133
1550.5725,0.157608
1552.4362,0.160938
1554.2999,0.162945
1556.1635,0.166382
1558.0272,0.172598
1559.8909,0.191748
1561.7546,0.188129
1563.6182,0.186215
1565.4819,0.189843
1567.3456,0.194444
1569.2092,0.200368
1571.0729,0.207625
1572.9366,0.208019
1574.8002,0.211692
1576.6639,0.220665
1578.5276,0.224830
1580.3912,0.224640
1582.2549,0.226928
1584.1186,0.227906
1585.9822,0.228293
1587.8459,0.226882
1589.7096,0.225247
1591.5733,0.222395
1593.4369,0.219020
1595.3006,0.214647
1597.1643,0.210007
1599.0279,0.204872
1600.8916,0.200545
1602.7553,0.196206
1604.6189,0.192031
1606.4826,0.187893
1608.3463,0.184268
1610.2099,0.180310
1612.0736,0.175994
1613.9373,0.171010
1615.8010,0.165366
1617.6646,0.156422
1619.5283,0.147583
1621.3920,0.140941
1623.2556,0.133543
1625.1193,0.125523
1626.9830,0.118457
1628.8466,0.110545
1630.7103,0.102128
1632.5740,0.095250
1634.4376,0.089722
1636.3013,0.084598
1638.1650,0.081584
1640.0286,0.080983
1641.8923,0.081677
1643.7560,0.083628
1645.6197,0.087583
1647.4833,0.093877
1649.3470,0.096911
1651.2107,0.099224
1653.0743,0.107075
1654.9380,0.115627
1656.8017,0.114140
1658.6653,0.114518
1660.5290,0.114813
1662.3927,0.113574
1664.2563,0.110139
1666.1200,0.105689
1667.9837,0.100888
1669.8474,0.094054
1671.7110,0.086696
1673.5747,0.082654
1675.4384,0.080117
1677.3020,0.079243
1679.1657,0.079423
1681.0294,0.082139
1682.8930,0.085528
1684.7567,0.091577
1686.6204,0.093044
1688.4840,0.091816
1690.3477,0.090658
1692.2114,0.087906
1694.0750,0.085057
1695.9387,0.081921
1697.8024,0.078647
1699.6661,0.075087
1701.5297,0.069242
1703.3934,0.063367
1705.2571,0.056688
1707.1207,0.048894
1708.9844,0.042660
1710.8481,0.038660
1712.7117,0.035473
1714.5754,0.033628
1716.4391,0.032017
1718.3027,0.030410
1720.1664,0.029309
1722.0301,0.028278
1723.8937,0.027063
1725.7574,0.025313
1727.6211,0.023514
1729.4848,0.022068
1731.3484,0.020964
1733.2121,0.020048
1735.0758,0.018951
1736.9394,0.017988
1738.8031,0.017508
1740.6668,0.017793
1742.5304,0.017017
1744.3941,0.016974
1746.2578,0.016563
1748.1214,0.016528
1749.9851,0.016497
1751.8488,0.016042
1753.7125,0.015694
1755.5761,0.015589
1757.4398,0.015629
1759.3035,0.015586
1761.1671,0.015479
1763.0308,0.015908
1764.8945,0.015601
1766.7581,0.015534
1768.6218,0.015721
1770.4855,0.015774
1772.3491,0.015615
1774.2128,0.015519
1776.0765,0.014779
1777.9401,0.015054
1779.8038,0.014926
1781.6675,0.015337
1783.5312,0.015186
1785.3948,0.015407
1787.2585,0.015111
1789.1222,0.015289
1790.9858,0.015739
1792.8495,0.016049
1794.7132,0.015426
1796.5768,0.015442
1798.4405,0.015870
1800.3042,0.016446
1802.1678,0.016641
1804.0315,0.016347
1805.8952,0.016114
1807.7589,0.016432
1809.6225,0.016380
1811.4862,0.016340
1813.3499,0.016125
1815.2135,0.016129
1817.0772,0.016048
1818.9409,0.016076
1820.8045,0.016112
1822.6682,0.016421
1824.5319,0.016404
1826.3955,0.016668
1828.2592,0.016284
1830.1229,0.016540
1831.9865,0.016012
1833.8502,0.015551
1835.7139,0.015915
1837.5776,0.015880
1839.4412,0.015706
1841.3049,0.015948
1843.1686,0.016220
1845.0322,0.016333
1846.8959,0.015601
1848.7596,0.015494
1850.6232,0.015697
1852.4869,0.015900
1854.3506,0.016180
1856.2142,0.016283
1858.0779,0.016318
1859.9416,0.016284
1861.8052,0.015939
1863.6689,0.015661
1865.5326,0.016019
1867.3963,0.016306
1869.2599,0.016311
1871.1236,0.015839
1872.9873,0.015426
1874.8509,0.015946
1876.7146,0.016286
1878.5783,0.016552
1880.4419,0.016584
1882.3056,0.016663
1884.1693,0.016527
1886.0329,0.016686
1887.8966,0.016797
1889.7603,0.016484
1891.6240,0.015913
1893.4876,0.015848
1895.3513,0.015791
1897.2150,0.015271
1899.0786,0.015074
1900.9423,0.015571
1902.8060,0.015842
1904.6696,0.016015
1906.5333,0.015814
1908.3970,0.015613
1910.2606,0.015709
1912.1243,0.016007
1913.9880,0.016282
1915.8516,0.016557
1917.7153,0.016571
1919.5790,0.016353
1921.4427,0.015554
1923.3063,0.015935
1925.1700,0.015588
1927.0337,0.015297
1928.8973,0.015064
1930.7610,0.015498
1932.6247,0.015714
1934.4883,0.015306
1936.3520,0.015014
1938.2157,0.014669
1940.0793,0.014193
1941.9430,0.014538
1943.8067,0.014662
1945.6704,0.013992
1947.5340,0.013600
1949.3977,0.013643
1951.2614,0.013681
1953.1250,0.013550
1954.9887,0.012642
1956.8524,0.012189
1958.7160,0.012414
1960.5797,0.012112
1962.4434,0.011004
1964.3070,0.010304
1966.1707,0.009687
1968.0344,0.008628
1969.8980,0.007895
1971.7617,0.008456
1973.6254,0.008032
1975.4891,0.007702
1977.3527,0.007523
1979.2164,0.007455
1981.0801,0.008005
1982.9437,0.008820
1984.8074,0.009405
1986.6711,0.010655
1988.5347,0.010980
1990.3984,0.012112
1992.2621,0.012113
1994.1257,0.010790
1995.9894,0.010888
1997.8531,0.012479
1999.7167,0.011854
2001.5804,0.010957
2003.4441,0.010881
2005.3078,0.011055
2007.1714,0.010614
2009.0351,0.010928
2010.8988,0.010568
2012.7624,0.009468
2014.6261,0.009696
2016.4898,0.009222
2018.3534,0.007798
2020.2171,0.008928
2022.0808,0.008242
2023.9444,0.008338
2025.8081,0.008558
2027.6718,0.009746
2029.5355,0.010148
2031.3991,0.009508
2033.2628,0.008357
2035.1265,0.009307
2036.9901,0.010756
2038.8538,0.012259
2040.7175,0.012904
2042.5811,0.012664
2044.4448,0.012419
2046.3085,0.013138
2048.1721,0.014151
2050.0358,0.015465
2051.8995,0.016896
2053.7631,0.017331
2055.6268,0.017354
2057.4905,0.017782
2059.3542,0.018625
2061.2178,0.019303
2063.0815,0.019203
2064.9452,0.019302
2066.8088,0.019718
2068.6725,0.019378
2070.5362,0.019140
2072.3998,0.019720
2074.2635,0.020280
2076.1272,0.020717
2077.9908,0.020912
2079.8545,0.021475
2081.7182,0.022069
2083.5819,0.022087
2085.4455,0.021968
2087.3092,0.021881
2089.1729,0.021601
2091.0365,0.021844
2092.9002,0.022261
2094.7639,0.021940
2096.6275,0.021249
2098.4912,0.021414
2100.3549,0.021531
2102.2185,0.021739
2104.0822,0.021907
2105.9459,0.021564
2107.8095,0.021156
2109.6732,0.021088
2111.5369,0.021438
2113.4006,0.021909
2115.2642,0.022026
2117.1279,0.021641
2118.9916,0.021277
2120.8552,0.021673
2122.7189,0.022132
2124.5826,0.021546
2126.4462,0.020665
2128.3099,0.020291
2130.1736,0.019795
2132.0372,0.019192
2133.9009,0.018514
2135.7646,0.018739
2137.6282,0.019431
2139.4919,0.018279
2141.3556,0.017193
2143.2193,0.017780
2145.0829,0.017402
2146.9466,0.015700
2148.8103,0.015264
2150.6739,0.013945
2152.5376,0.012276
2154.4013,0.012513
2156.2649,0.010942
2158.1286,0.008742
2159.9923,0.009730
2161.8559,0.010743
2163.7196,0.011089
2165.5833,0.013015
2167.4470,0.014142
2169.3106,0.014428
2171.1743,0.014256
2173.0380,0.013951
2174.9016,0.013288
2176.7653,0.014161
2178.6290,0.015717
2180.4926,0.016341
2182.3563,0.016806
2184.2200,0.016488
2186.0836,0.015287
2187.9473,0.015511
2189.8110,0.015995
2191.6746,0.016243
2193.5383,0.017309
2195.4020,0.017937
2197.2657,0.018285
2199.1293,0.018730
2200.9930,0.019338
2202.8567,0.020170
2204.7203,0.019675
2206.5840,0.019208
2208.4477,0.020000
2210.3113,0.020629
2212.1750,0.020790
2214.0387,0.020756
2215.9023,0.020598
2217.7660,0.020805
2219.6297,0.020859
2221.4934,0.020949
2223.3570,0.021345
2225.2207,0.022130
2227.0844,0.023178
2228.9480,0.023021
2230.8117,0.022744
2232.6754,0.023444
2234.5390,0.023506
2236.4027,0.023274
2238.2664,0.024267
2240.1300,0.025828
2241.9937,0.026335
2243.8574,0.025201
2245.7210,0.024366
2247.5847,0.024027
2249.4484,0.023670
2251.3121,0.024437
2253.1757,0.025827
2255.0394,0.025824
2256.9031,0.026181
2258.7667,0.026946
2260.6304,0.026733
2262.4941,0.026518
2264.3577,0.026991
2266.2214,0.027667
2268.0851,0.028375
2269.9487,0.028409
2271.8124,0.028572
2273.6761,0.029458
2275.5397,0.030307
2277.4034,0.030465
2279.2671,0.030911
2281.1308,0.031298
2282.9944,0.031684
2284.8581,0.032000
2286.7218,0.031951
2288.5854,0.032010
2290.4491,0.031994
2292.3128,0.031948
2294.1764,0.032434
2296.0401,0.032685
2297.9038,0.032713
2299.7674,0.032652
2301.6311,0.032890
2303.4948,0.033302
2305.3585,0.033295
2307.2221,0.033333
2309.0858,0.033733
2310.9495,0.033860
2312.8131,0.033957
2314.6768,0.033797
2316.5405,0.033750
2318.4041,0.034036
2320.2678,0.034304
2322.1315,0.034205
2323.9951,0.034244
2325.8588,0.033617
2327.7225,0.033010
2329.5861,0.033110
2331.4498,0.033192
2333.3135,0.033271
2335.1772,0.033169
2337.0408,0.033275
2338.9045,0.033661
2340.7682,0.034076
2342.6318,0.034401
2344.4955,0.034618
2346.3592,0.034525
2348.2228,0.033717
2350.0865,0.033325
2351.9502,0.033551
2353.8138,0.033752
2355.6775,0.033828
2357.5412,0.033683
2359.4049,0.033867
2361.2685,0.034513
2363.1322,0.034594
2364.9959,0.034544
2366.8595,0.034643
2368.7232,0.034857
2370.5869,0.034886
2372.4505,0.035253
2374.3142,0.035749
2376.1779,0.035950
2378.0415,0.035926
2379.9052,0.035939
2381.7689,0.035848
2383.6325,0.035990
2385.4962,0.036215
2387.3599,0.036179
2389.2236,0.035949
2391.0872,0.035962
2392.9509,0.036182
2394.8146,0.036370
2396.6782,0.036323
2398.5419,0.036447
2400.4056,0.036506
2402.2692,0.036378
2404.1329,0.036278
2405.9966,0.036406
2407.8602,0.036491
2409.7239,0.036791
2411.5876,0.037000
2413.4512,0.037107
2415.3149,0.037097
2417.1786,0.037069
2419.0423,0.037191
2420.9059,0.037278
2422.7696,0.037197
2424.6333,0.037347
2426.4969,0.037419
2428.3606,0.037507
2430.2243,0.037563
2432.0879,0.037755
2433.9516,0.038035
2435.8153,0.038172
2437.6789,0.038119
2439.5426,0.038211
2441.4063,0.038128
2443.2700,0.038156
2445.1336,0.038301
2446.9973,0.038273
2448.8610,0.038077
2450.7246,0.038286
2452.5883,0.038464
2454.4520,0.038452
2456.3156,0.038401
2458.1793,0.038423
2460.0430,0.038261
2461.9066,0.038216
2463.7703,0.038262
2465.6340,0.038519
2467.4976,0.038462
2469.3613,0.038315
2471.2250,0.038515
2473.0887,0.038954
2474.9523,0.039245
2476.8160,0.039194
2478.6797,0.038770
2480.5433,0.039081
2482.4070,0.039622
2484.2707,0.039691
2486.1343,0.039619
2487.9980,0.039784
2489.8617,0.039745
2491.7253,0.039710
2493.5890,0.039762
2495.4527,0.039667
2497.3164,0.039326
2499.1800,0.039504
2501.0437,0.039743
2502.9074,0.039899
2504.7710,0.040104
2506.6347,0.040253
2508.4984,0.040222
2510.3620,0.040538
2512.2257,0.040678
2514.0894,0.040543
2515.9530,0.040580
2517.8167,0.040927
2519.6804,0.041065
2521.5440,0.041100
2523.4077,0.040879
2525.2714,0.040817
2527.1351,0.041024
