Wavenumber,Intensity
650.4205,0.124114
652.2841,0.126003
654.1478,0.125852
656.0115,0.123267
657.8751,0.121799
659.7388,0.121332
661.6025,0.120638
663.4661,0.118561
665.3298,0.118553
667.1935,0.119823
669.0571,0.119142
670.9208,0.116445
672.7845,0.115833
674.6481,0.115213
676.5118,0.115332
678.3755,0.115012
680.2392,0.114790
682.1028,0.114041
683.9665,0.114167
685.8302,0.114494
687.6938,0.115101
689.5575,0.114859
691.4212,0.113788
693.2848,0.113966
695.1485,0.115567
697.0122,0.116131
698.8758,0.117190
700.7395,0.118211
702.6032,0.117860
704.4669,0.117592
706.3305,0.116068
708.1942,0.113570
710.0579,0.111609
711.9215,0.109531
713.7852,0.107036
715.6489,0.103656
717.5125,0.100462
719.3762,0.097486
721.2399,0.094943
723.1035,0.092823
724.9672,0.091505
726.8309,0.089252
728.6945,0.086985
730.5582,0.085401
732.4219,0.084867
734.2856,0.083859
736.1492,0.081915
738.0129,0.080982
739.8766,0.082094
741.7402,0.083285
743.6039,0.083886
745.4676,0.084394
747.3312,0.085097
749.1949,0.085997
751.0586,0.086849
752.9222,0.086997
754.7859,0.087829
756.6496,0.088862
758.5132,0.089318
760.3769,0.089250
762.2406,0.089147
764.1043,0.088248
765.9679,0.086792
767.8316,0.085604
769.6953,0.084211
771.5589,0.082556
773.4226,0.080543
775.2863,0.078607
777.1499,0.077283
779.0136,0.075929
780.8773,0.074871
782.7409,0.074058
784.6046,0.073742
786.4683,0.073898
788.3320,0.073899
790.1956,0.073472
792.0593,0.073607
793.9230,0.074081
795.7866,0.074128
797.6503,0.073659
799.5140,0.073294
801.3776,0.072984
803.2413,0.072891
805.1050,0.072837
806.9686,0.072580
808.8323,0.072090
810.6960,0.071514
812.5596,0.071178
814.4233,0.070758
816.2870,0.070085
818.1507,0.069590
820.0143,0.069302
821.8780,0.069712
823.7417,0.070119
825.6053,0.070666
827.4690,0.071920
829.3327,0.073045
831.1963,0.073000
833.0600,0.071719
834.9237,0.070353
836.7873,0.070216
838.6510,0.070451
840.5147,0.070941
842.3784,0.071702
844.2420,0.072487
846.1057,0.073123
847.9694,0.073559
849.8330,0.073817
851.6967,0.074087
853.5604,0.074702
855.4240,0.075612
857.2877,0.076228
859.1514,0.076397
861.0150,0.075867
862.8787,0.074780
864.7424,0.073278
866.6060,0.071564
868.4697,0.069607
870.3334,0.067657
872.1971,0.066065
874.0607,0.064984
875.9244,0.064363
877.7881,0.064305
879.6517,0.064627
881.5154,0.065195
883.3791,0.066077
885.2427,0.067289
887.1064,0.068750
888.9701,0.070215
890.8337,0.071447
892.6974,0.072812
894.5611,0.074110
896.4247,0.075287
898.2884,0.076519
900.1521,0.077880
902.0158,0.079267
903.8794,0.080926
905.7431,0.082872
907.6068,0.085209
909.4704,0.087823
911.3341,0.090764
913.1978,0.093746
915.0614,0.095960
916.9251,0.096105
918.7888,0.094415
920.6524,0.092914
922.5161,0.092651
924.3798,0.092847
926.2435,0.093043
928.1071,0.093153
929.9708,0.093191
931.8345,0.093035
933.6981,0.092806
935.5618,0.092485
937.4255,0.091777
939.2891,0.090971
941.1528,0.090399
943.0165,0.089847
944.8801,0.089822
946.7438,0.090590
948.6075,0.092048
950.4711,0.094096
952.3348,0.096672
954.1985,0.099688
956.0622,0.103041
957.9258,0.106620
959.7895,0.110478
961.6532,0.114595
963.5168,0.119053
965.3805,0.123932
967.2442,0.129267
969.1078,0.135018
970.9715,0.141153
972.8352,0.147726
974.6988,0.155223
976.5625,0.163744
978.4262,0.173629
980.2899,0.184259
982.1535,0.191049
984.0172,0.189730
985.8809,0.186144
987.7445,0.186181
989.6082,0.188427
991.4719,0.190274
993.3355,0.191231
995.1992,0.191277
997.0629,0.190642
998.9265,0.189461
1000.7902,0.187911
1002.6539,0.186025
1004.5175,0.184364
1006.3812,0.183201
1008.2449,0.182481
1010.1086,0.181649
1011.9722,0.180608
1013.8359,0.179257
1015.6996,0.177187
1017.5632,0.173987
1019.4269,0.170150
1021.2906,0.166009
1023.1542,0.161450
1025.0179,0.156449
1026.8816,0.151617
1028.7452,0.147104
1030.6089,0.142940
1032.4726,0.139343
1034.3362,0.136577
1036.1999,0.134644
1038.0636,0.133358
1039.9273,0.132332
1041.7909,0.131286
1043.6546,0.129800
1045.5183,0.127720
1047.3819,0.124879
1049.2456,0.120893
1051.1093,0.115359
1052.9729,0.108721
1054.8366,0.102099
1056.7003,0.096427
1058.5639,0.091823
1060.4276,0.088152
1062.2913,0.085350
1064.1550,0.083871
1066.0186,0.084349
1067.8823,0.087281
1069.7460,0.092742
1071.6096,0.099605
1073.4733,0.105605
1075.3370,0.108996
1077.2006,0.109277
1079.0643,0.107249
1080.9280,0.104037
1082.7916,0.100229
1084.6553,0.096168
1086.5190,0.092287
1088.3826,0.088893
1090.2463,0.086305
1092.1100,0.084578
1093.9737,0.083725
1095.8373,0.083744
1097.7010,0.084588
1099.5647,0.085899
1101.4283,0.087241
1103.2920,0.088088
1105.1557,0.088015
1107.0193,0.086773
1108.8830,0.084471
1110.7467,0.081437
1112.6103,0.078133
1114.4740,0.075078
1116.3377,0.072637
1118.2014,0.070892
1120.0650,0.069753
1121.9287,0.069018
1123.7924,0.068465
1125.6560,0.067850
1127.5197,0.067054
1129.3834,0.066264
1131.2470,0.065670
1133.1107,0.065587
1134.9744,0.066447
1136.8380,0.068134
1138.7017,0.070533
1140.5654,0.073298
1142.4290,0.075904
1144.2927,0.078148
1146.1564,0.079626
1148.0201,0.080089
1149.8837,0.079752
1151.7474,0.078423
1153.6111,0.076066
1155.4747,0.073007
1157.3384,0.069400
1159.2021,0.065381
1161.0657,0.061164
1162.9294,0.057008
1164.7931,0.053004
1166.6567,0.049286
1168.5204,0.046236
1170.3841,0.043800
1172.2477,0.041717
1174.1114,0.039752
1175.9751,0.037630
1177.8388,0.035585
1179.7024,0.034131
1181.5661,0.033367
1183.4298,0.033061
1185.2934,0.033110
1187.1571,0.033504
1189.0208,0.034068
1190.8844,0.034696
1192.7481,0.035386
1194.6118,0.036107
1196.4754,0.036833
1198.3391,0.037484
1200.2028,0.038056
1202.0665,0.038582
1203.9301,0.038946
1205.7938,0.039123
1207.6575,0.039188
1209.5211,0.039167
1211.3848,0.039181
1213.2485,0.039219
1215.1121,0.039307
1216.9758,0.039524
1218.8395,0.039801
1220.7031,0.040287
1222.5668,0.040896
1224.4305,0.041554
1226.2941,0.042310
1228.1578,0.042976
1230.0215,0.043573
1231.8852,0.044162
1233.7488,0.044714
1235.6125,0.045266
1237.4762,0.045785
1239.3398,0.046128
1241.2035,0.046264
1243.0672,0.046361
1244.9308,0.046458
1246.7945,0.046483
1248.6582,0.046440
1250.5218,0.046378
1252.3855,0.046396
1254.2492,0.046543
1256.1129,0.046774
1257.9765,0.047058
1259.8402,0.047405
1261.7039,0.047742
1263.5675,0.047954
1265.4312,0.048118
1267.2949,0.048245
1269.1585,0.048256
1271.0222,0.048331
1272.8859,0.048577
1274.7495,0.048909
1276.6132,0.049438
1278.4769,0.050138
1280.3405,0.050866
1282.2042,0.051590
1284.0679,0.052314
1285.9316,0.053116
1287.7952,0.054004
1289.6589,0.054843
1291.5226,0.055779
1293.3862,0.056823
1295.2499,0.057964
1297.1136,0.059241
1298.9772,0.060704
1300.8409,0.062429
1302.7046,0.064235
1304.5682,0.065708
1306.4319,0.065987
1308.2956,0.063986
1310.1592,0.060012
1312.0229,0.056127
1313.8866,0.053806
1315.7503,0.053101
1317.6139,0.053572
1319.4776,0.054636
1321.3413,0.055628
1323.2049,0.056600
1325.0686,0.057789
1326.9323,0.058961
1328.7959,0.060024
1330.6596,0.060920
1332.5233,0.061453
1334.3869,0.061607
1336.2506,0.061648
1338.1143,0.061965
1339.9780,0.062418
1341.8416,0.062144
1343.7053,0.061600
1345.5690,0.061391
1347.4326,0.061374
1349.2963,0.061542
1351.1600,0.061731
1353.0236,0.061936
1354.8873,0.062358
1356.7510,0.062660
1358.6146,0.062713
1360.4783,0.062941
1362.3420,0.063787
1364.2056,0.064307
1366.0693,0.064123
1367.9330,0.064293
1369.7967,0.064510
1371.6603,0.064539
1373.5240,0.065120
1375.3877,0.065775
1377.2513,0.065908
1379.1150,0.066279
1380.9787,0.066797
1382.8423,0.067048
1384.7060,0.067438
1386.5697,0.068740
1388.4333,0.070343
1390.2970,0.070798
1392.1607,0.071295
1394.0244,0.072345
1395.8880,0.072281
1397.7517,0.070919
1399.6154,0.069470
1401.4790,0.067606
1403.3427,0.065957
1405.2064,0.064096
1407.0700,0.061002
1408.9337,0.057334
1410.7974,0.053909
1412.6610,0.051336
1414.5247,0.049788
1416.3884,0.049427
1418.2520,0.050827
1420.1157,0.052730
1421.9794,0.052823
1423.8431,0.052171
1425.7067,0.050204
1427.5704,0.047838
1429.4341,0.046397
1431.2977,0.045529
1433.1614,0.044772
1435.0251,0.044875
1436.8887,0.046197
1438.7524,0.046385
1440.6161,0.045943
1442.4797,0.045972
1444.3434,0.045988
1446.2071,0.046244
1448.0707,0.046731
1449.9344,0.046403
1451.7981,0.045483
1453.6618,0.044539
1455.5254,0.044565
1457.3891,0.046463
1459.2528,0.046260
1461.1164,0.044702
1462.9801,0.044028
1464.8438,0.043764
1466.7074,0.042423
1468.5711,0.040554
1470.4348,0.039276
1472.2984,0.038880
1474.1621,0.038492
1476.0258,0.037848
1477.8895,0.037161
1479.7531,0.036662
1481.6168,0.036478
1483.4805,0.036081
1485.3441,0.035735
1487.2078,0.035964
1489.0715,0.036801
1490.9351,0.037174
1492.7988,0.036522
1494.6625,0.036446
1496.5261,0.037366
1498.3898,0.038021
1500.2535,0.037820
1502.1171,0.037227
1503.9808,0.036793
1505.8445,0.037857
1507.7082,0.040532
1509.5718,0.039796
1511.4355,0.039335
1513.2992,0.039472
1515.1628,0.039640
1517.0265,0.039954
1518.8902,0.040033
1520.7538,0.040558
1522.6175,0.041327
1524.4812,0.041436
1526.3448,0.041965
1528.2085,0.041996
1530.0722,0.041502
1531.9359,0.041905
1533.7995,0.042913
1535.6632,0.042351
1537.5269,0.041765
1539.3905,0.043014
1541.2542,0.045468
1543.1179,0.045716
1544.9815,0.045958
1546.8452,0.046057
1548.7089,0.046341
1550.5725,0.046940
1552.4362,0.046973
1554.2999,0.046881
1556.1635,0.047199
1558.0272,0.049879
1559.8909,0.054324
1561.7546,0.051841
1563.6182,0.051024
1565.4819,0.051481
1567.3456,0.052074
1569.2092,0.053573
1571.0729,0.054612
1572.9366,0.054012
1574.8002,0.054808
1576.6639,0.057428
1578.5276,0.058066
1580.3912,0.057869
1582.2549,0.058498
1584.1186,0.059223
1585.9822,0.059906
1587.8459,0.060551
1589.7096,0.061018
1591.5733,0.061390
1593.4369,0.061710
1595.3006,0.061893
1597.1643,0.061884
1599.0279,0.061741
1600.8916,0.061640
1602.7553,0.061603
1604.6189,0.061550
1606.4826,0.061357
1608.3463,0.061159
1610.2099,0.060888
1612.0736,0.060344
1613.9373,0.059852
1615.8010,0.060071
1617.6646,0.059658
1619.5283,0.057728
1621.3920,0.056785
1623.2556,0.056292
1625.1193,0.054929
1626.9830,0.053740
1628.8466,0.052198
1630.7103,0.049548
1632.5740,0.047389
1634.4376,0.046589
1636.3013,0.045988
1638.1650,0.043991
1640.0286,0.042805
1641.8923,0.042007
1643.7560,0.041533
1645.6197,0.042077
1647.4833,0.042713
1649.3470,0.041709
1651.2107,0.041858
1653.0743,0.044882
1654.9380,0.045652
1656.8017,0.043661
1658.6653,0.043165
1660.5290,0.043251
1662.3927,0.043451
1664.2563,0.042772
1666.1200,0.041583
1667.9837,0.041170
1669.8474,0.041211
1671.7110,0.040724
1673.5747,0.040731
1675.4384,0.041382
1677.3020,0.041218
1679.1657,0.041054
1681.0294,0.041590
1682.8930,0.042755
1684.7567,0.044898
1686.6204,0.044503
1688.4840,0.043751
1690.3477,0.043260
1692.2114,0.042157
1694.0750,0.041260
1695.9387,0.040417
1697.8024,0.039112
1699.6661,0.038881
1701.5297,0.037558
1703.3934,0.035356
1705.2571,0.034017
1707.1207,0.032103
1708.9844,0.030244
1710.8481,0.028858
1712.7117,0.027623
1714.5754,0.026878
1716.4391,0.026997
1718.3027,0.027353
1720.1664,0.026506
1722.0301,0.025792
1723.8937,0.025449
1725.7574,0.024927
1727.6211,0.024344
1729.4848,0.023844
1731.3484,0.023422
1733.2121,0.023637
1735.0758,0.023806
1736.9394,0.022944
1738.8031,0.022855
1740.6668,0.022990
1742.5304,0.022709
1744.3941,0.022493
1746.2578,0.022175
1748.1214,0.022345
1749.9851,0.022736
1751.8488,0.022668
1753.7125,0.022343
1755.5761,0.022375
1757.4398,0.022601
1759.3035,0.022253
1761.1671,0.022154
1763.0308,0.022358
1764.8945,0.022079
1766.7581,0.021964
1768.6218,0.022120
1770.4855,0.022239
1772.3491,0.022564
1774.2128,0.022512
1776.0765,0.022194
1777.9401,0.022177
1779.8038,0.022224
1781.6675,0.022303
1783.5312,0.022313
1785.3948,0.022431
1787.2585,0.022332
1789.1222,0.022135
1790.9858,0.022414
1792.8495,0.022992
1794.7132,0.022646
1796.5768,0.022186
1798.4405,0.022167
1800.3042,0.022422
1802.1678,0.022663
1804.0315,0.022503
1805.8952,0.022364
1807.7589,0.022438
1809.6225,0.022531
1811.4862,0.022678
1813.3499,0.022769
1815.2135,0.022578
1817.0772,0.022250
1818.9409,0.022191
1820.8045,0.022393
1822.6682,0.022735
1824.5319,0.022754
1826.3955,0.022360
1828.2592,0.022400
1830.1229,0.022618
1831.9865,0.022350
1833.8502,0.022277
1835.7139,0.022400
1837.5776,0.022264
1839.4412,0.022053
1841.3049,0.022131
1843.1686,0.022687
1845.0322,0.022967
1846.8959,0.022445
1848.7596,0.022366
1850.6232,0.022559
1852.4869,0.022621
1854.3506,0.022646
1856.2142,0.022760
1858.0779,0.022800
1859.9416,0.022568
1861.8052,0.022425
1863.6689,0.022025
1865.5326,0.021801
1867.3963,0.022486
1869.2599,0.023024
1871.1236,0.022720
1872.9873,0.022487
1874.8509,0.022419
1876.7146,0.022250
1878.5783,0.022206
1880.4419,0.022303
1882.3056,0.022223
1884.1693,0.022038
1886.0329,0.021976
1887.8966,0.022128
1889.7603,0.022571
1891.6240,0.022668
1893.4876,0.022212
1895.3513,0.021820
1897.2150,0.021977
1899.0786,0.022285
1900.9423,0.022128
1902.8060,0.021978
1904.6696,0.021939
1906.5333,0.021937
1908.3970,0.022147
1910.2606,0.022074
1912.1243,0.021576
1913.9880,0.021461
1915.8516,0.021673
1917.7153,0.021807
1919.5790,0.021508
1921.4427,0.021235
1923.3063,0.021414
1925.1700,0.021138
1927.0337,0.021061
1928.8973,0.021222
1930.7610,0.021183
1932.6247,0.021202
1934.4883,0.021171
1936.3520,0.020903
1938.2157,0.020852
1940.0793,0.020902
1941.9430,0.020631
1943.8067,0.019614
1945.6704,0.018859
1947.5340,0.018944
1949.3977,0.018944
1951.2614,0.018831
1953.1250,0.018425
1954.9887,0.018089
1956.8524,0.018191
1958.7160,0.017612
1960.5797,0.016486
1962.4434,0.015420
1964.3070,0.014251
1966.1707,0.013481
1968.0344,0.014013
1969.8980,0.014803
1971.7617,0.014310
1973.6254,0.013035
1975.4891,0.012591
1977.3527,0.013180
1979.2164,0.013898
1981.0801,0.013643
1982.9437,0.013739
1984.8074,0.014082
1986.6711,0.014882
1988.5347,0.015427
1990.3984,0.015192
1992.2621,0.015027
1994.1257,0.015358
1995.9894,0.016121
1997.8531,0.016398
1999.7167,0.016256
2001.5804,0.015855
2003.4441,0.014085
2005.3078,0.012807
2007.1714,0.012483
2009.0351,0.012597
2010.8988,0.013023
2012.7624,0.012968
2014.6261,0.012864
2016.4898,0.013412
2018.3534,0.013453
2020.2171,0.011963
2022.0808,0.010805
2023.9444,0.011235
2025.8081,0.011893
2027.6718,0.011881
2029.5355,0.011346
2031.3991,0.011917
2033.2628,0.013328
2035.1265,0.014092
2036.9901,0.013588
2038.8538,0.013486
2040.7175,0.014606
2042.5811,0.015813
2044.4448,0.015956
2046.3085,0.016106
2048.1721,0.016270
2050.0358,0.016923
2051.8995,0.018219
2053.7631,0.018498
2055.6268,0.018732
2057.4905,0.019869
2059.3542,0.020368
2061.2178,0.020776
2063.0815,0.021015
2064.9452,0.020671
2066.8088,0.020404
2068.6725,0.020929
2070.5362,0.021544
2072.3998,0.021369
2074.2635,0.021848
2076.1272,0.022471
2077.9908,0.022498
2079.8545,0.022454
2081.7182,0.022440
2083.5819,0.022339
2085.4455,0.021998
2087.3092,0.021697
2089.1729,0.022268
2091.0365,0.022917
2092.9002,0.022853
2094.7639,0.022893
2096.6275,0.022790
2098.4912,0.022677
2100.3549,0.023332
2102.2185,0.023486
2104.0822,0.022738
2105.9459,0.022775
2107.8095,0.023332
2109.6732,0.023394
2111.5369,0.023379
2113.4006,0.023444
2115.2642,0.023352
2117.1279,0.023187
2118.9916,0.023200
2120.8552,0.023027
2122.7189,0.022340
2124.5826,0.022177
2126.4462,0.022899
2128.3099,0.023000
2130.1736,0.022390
2132.0372,0.021242
2133.9009,0.020092
2135.7646,0.020356
2137.6282,0.021040
2139.4919,0.020696
2141.3556,0.018725
2143.2193,0.017473
2145.0829,0.017650
2146.9466,0.016834
2148.8103,0.015138
2150.6739,0.015107
2152.5376,0.014502
2154.4013,0.013114
2156.2649,0.011224
2158.1286,0.010011
2159.9923,0.010771
2161.8559,0.012713
2163.7196,0.014267
2165.5833,0.014649
2167.4470,0.014965
2169.3106,0.015540
2171.1743,0.016019
2173.0380,0.015193
2174.9016,0.014137
2176.7653,0.014913
2178.6290,0.015969
2180.4926,0.017084
2182.3563,0.017734
2184.2200,0.017877
2186.0836,0.017779
2187.9473,0.018249
2189.8110,0.018975
2191.6746,0.019706
2193.5383,0.019732
2195.4020,0.018831
2197.2657,0.018000
2199.1293,0.018001
2200.9930,0.019301
2202.8567,0.020741
2204.7203,0.020126
2206.5840,0.019285
2208.4477,0.020094
2210.3113,0.020334
2212.1750,0.020262
2214.0387,0.020508
2215.9023,0.020889
2217.7660,0.021937
2219.6297,0.022235
2221.4934,0.022505
2223.3570,0.021870
2225.2207,0.021319
2227.0844,0.021433
2228.9480,0.022127
2230.8117,0.022774
2232.6754,0.022587
2234.5390,0.022526
2236.4027,0.022249
2238.2664,0.022792
2240.1300,0.023538
2241.9937,0.023988
2243.8574,0.024431
2245.7210,0.024570
2247.5847,0.024687
2249.4484,0.024573
2251.3121,0.024245
2253.1757,0.024317
2255.0394,0.024511
2256.9031,0.024750
2258.7667,0.024919
2260.6304,0.024993
2262.4941,0.025709
2264.3577,0.026160
2266.2214,0.025686
2268.0851,0.025764
2269.9487,0.026340
2271.8124,0.026376
2273.6761,0.026287
2275.5397,0.026679
2277.4034,0.026979
2279.2671,0.027313
2281.1308,0.027426
2282.9944,0.027296
2284.8581,0.027607
2286.7218,0.028041
2288.5854,0.028054
2290.4491,0.028251
2292.3128,0.028311
2294.1764,0.028158
2296.0401,0.028095
2297.9038,0.028433
2299.7674,0.028645
2301.6311,0.028648
2303.4948,0.028585
2305.3585,0.028446
2307.2221,0.028412
2309.0858,0.028598
2310.9495,0.028677
2312.8131,0.028954
2314.6768,0.029185
2316.5405,0.029155
2318.4041,0.029227
2320.2678,0.029445
2322.1315,0.029889
2323.9951,0.029943
2325.8588,0.029583
2327.7225,0.029307
2329.5861,0.029440
2331.4498,0.029260
2333.3135,0.029096
2335.1772,0.029262
2337.0408,0.029345
2338.9045,0.029435
2340.7682,0.029775
2342.6318,0.029921
2344.4955,0.029915
2346.3592,0.030009
2348.2228,0.029380
2350.0865,0.028824
2351.9502,0.028880
2353.8138,0.029038
2355.6775,0.029006
2357.5412,0.028983
2359.4049,0.029104
2361.2685,0.029529
2363.1322,0.029758
2364.9959,0.029527
2366.8595,0.029265
2368.7232,0.029938
2370.5869,0.030162
2372.4505,0.029920
2374.3142,0.030236
2376.1779,0.030586
2378.0415,0.030451
2379.9052,0.030199
2381.7689,0.030143
2383.6325,0.030185
2385.4962,0.030124
2387.3599,0.030017
2389.2236,0.029762
2391.0872,0.029516
2392.9509,0.029525
2394.8146,0.029912
2396.6782,0.030146
2398.5419,0.029939
2400.4056,0.029817
2402.2692,0.030043
2404.1329,0.030150
2405.9966,0.030322
2407.8602,0.030343
2409.7239,0.030067
2411.5876,0.030069
2413.4512,0.030371
2415.3149,0.030378
2417.1786,0.030044
2419.0423,0.030155
2420.9059,0.030631
2422.7696,0.030515
2424.6333,0.030317
2426.4969,0.030550
2428.3606,0.030946
2430.2243,0.030792
2432.0879,0.030787
2433.9516,0.030968
2435.8153,0.030815
2437.6789,0.030760
2439.5426,0.031033
2441.4063,0.031109
2443.2700,0.031032
2445.1336,0.030919
2446.9973,0.030936
2448.8610,0.031351
2450.7246,0.031854
2452.5883,0.031573
2454.4520,0.031311
2456.3156,0.031478
2458.1793,0.031614
2460.0430,0.031360
2461.9066,0.031157
2463.7703,0.031375
2465.6340,0.031398
2467.4976,0.031337
2469.3613,0.031465
2471.2250,0.031438
2473.0887,0.031348
2474.9523,0.031953
2476.8160,0.032187
2478.6797,0.031779
2480.5433,0.031914
2482.4070,0.032115
2484.2707,0.031808
2486.1343,0.031823
2487.9980,0.032152
2489.8617,0.032006
2491.7253,0.031743
2493.5890,0.031518
2495.4527,0.031743
2497.3164,0.032164
2499.1800,0.032382
2501.0437,0.032347
2502.9074,0.032002
2504.7710,0.032197
2506.6347,0.032687
2508.4984,0.032711
2510.3620,0.032653
2512.2257,0.032524
2514.0894,0.032583
2515.9530,0.032494
2517.8167,0.032586
2519.6804,0.033005
2521.5440,0.033124
2523.4077,0.033080
2525.2714,0.032999
2527.1351,0.033018
