Wavenumber,Intensity
650.4205,0.264177
652.2841,0.269269
654.1478,0.281706
656.0115,0.292300
657.8751,0.305755
659.7388,0.323211
661.6025,0.345108
663.4661,0.364385
665.3298,0.382666
667.1935,0.394216
669.0571,0.382547
670.9208,0.351485
672.7845,0.326787
674.6481,0.302619
676.5118,0.283194
678.3755,0.269984
680.2392,0.262987
682.1028,0.253643
683.9665,0.242245
685.8302,0.231829
687.6938,0.223464
689.5575,0.215116
691.4212,0.208088
693.2848,0.199451
695.1485,0.190284
697.0122,0.183575
698.8758,0.179618
700.7395,0.176444
702.6032,0.173105
704.4669,0.169183
706.3305,0.165356
708.1942,0.159740
710.0579,0.155263
711.9215,0.151461
713.7852,0.147389
715.6489,0.143462
717.5125,0.140218
719.3762,0.136823
721.2399,0.134096
723.1035,0.131996
724.9672,0.130107
726.8309,0.128418
728.6945,0.126692
730.5582,0.124890
732.4219,0.123751
734.2856,0.123182
736.1492,0.122702
738.0129,0.122297
739.8766,0.122764
741.7402,0.124137
743.6039,0.125895
745.4676,0.126862
747.3312,0.126948
749.1949,0.125853
751.0586,0.125091
752.9222,0.124642
754.7859,0.124298
756.6496,0.124299
758.5132,0.124438
760.3769,0.123786
762.2406,0.123179
764.1043,0.122887
765.9679,0.123376
767.8316,0.123641
769.6953,0.124114
771.5589,0.125156
773.4226,0.126345
775.2863,0.127550
777.1499,0.128963
779.0136,0.129840
780.8773,0.130014
782.7409,0.130047
784.6046,0.130294
786.4683,0.130985
788.3320,0.132023
790.1956,0.132538
792.0593,0.133088
793.9230,0.133728
795.7866,0.134598
797.6503,0.135831
799.5140,0.137302
801.3776,0.138196
803.2413,0.138799
805.1050,0.139087
806.9686,0.139673
808.8323,0.140545
810.6960,0.140837
812.5596,0.139798
814.4233,0.137924
816.2870,0.136361
818.1507,0.135540
820.0143,0.135222
821.8780,0.135642
823.7417,0.136635
825.6053,0.138037
827.4690,0.139726
829.3327,0.141479
831.1963,0.141158
833.0600,0.137599
834.9237,0.134032
836.7873,0.132783
838.6510,0.133045
840.5147,0.134228
842.3784,0.135774
844.2420,0.137556
846.1057,0.139445
847.9694,0.141222
849.8330,0.142278
851.6967,0.143006
853.5604,0.143877
855.4240,0.145025
857.2877,0.145924
859.1514,0.146572
861.0150,0.147609
862.8787,0.149014
864.7424,0.150431
866.6060,0.152278
868.4697,0.154088
870.3334,0.155806
872.1971,0.158103
874.0607,0.160620
875.9244,0.162926
877.7881,0.165201
879.6517,0.167488
881.5154,0.169926
883.3791,0.172451
885.2427,0.175071
887.1064,0.177505
888.9701,0.179778
890.8337,0.181815
892.6974,0.183923
894.5611,0.186448
896.4247,0.189244
898.2884,0.191920
900.1521,0.194899
902.0158,0.197925
903.8794,0.201353
905.7431,0.205170
907.6068,0.209592
909.4704,0.214570
911.3341,0.220194
913.1978,0.226631
915.0614,0.231993
916.9251,0.231907
918.7888,0.227004
920.6524,0.223116
922.5161,0.222873
924.3798,0.224916
926.2435,0.227857
928.1071,0.230915
929.9708,0.233920
931.8345,0.236921
933.6981,0.240005
935.5618,0.243179
937.4255,0.246467
939.2891,0.249569
941.1528,0.252704
943.0165,0.255817
944.8801,0.258723
946.7438,0.261478
948.6075,0.264585
950.4711,0.267954
952.3348,0.271491
954.1985,0.275163
956.0622,0.279080
957.9258,0.283302
959.7895,0.288108
961.6532,0.292820
963.5168,0.297819
965.3805,0.303030
967.2442,0.308580
969.1078,0.314443
970.9715,0.320694
972.8352,0.327185
974.6988,0.334840
976.5625,0.344673
978.4262,0.357923
980.2899,0.373551
982.1535,0.381444
984.0172,0.371573
985.8809,0.358906
987.7445,0.357054
989.6082,0.362388
991.4719,0.368862
993.3355,0.375180
995.1992,0.381207
997.0629,0.386919
998.9265,0.392096
1000.7902,0.396728
1002.6539,0.400938
1004.5175,0.405078
1006.3812,0.408468
1008.2449,0.410510
1010.1086,0.410142
1011.9722,0.407015
1013.8359,0.400487
1015.6996,0.390519
1017.5632,0.377442
1019.4269,0.362037
1021.2906,0.345053
1023.1542,0.328031
1025.0179,0.311960
1026.8816,0.297687
1028.7452,0.284738
1030.6089,0.272838
1032.4726,0.262038
1034.3362,0.252201
1036.1999,0.242976
1038.0636,0.234575
1039.9273,0.226970
1041.7909,0.219689
1043.6546,0.212551
1045.5183,0.205823
1047.3819,0.199081
1049.2456,0.191872
1051.1093,0.184163
1052.9729,0.176863
1054.8366,0.170964
1056.7003,0.166831
1058.5639,0.164251
1060.4276,0.162470
1062.2913,0.161052
1064.1550,0.160059
1066.0186,0.159182
1067.8823,0.158612
1069.7460,0.158878
1071.6096,0.159146
1073.4733,0.159130
1075.3370,0.159155
1077.2006,0.158909
1079.0643,0.158123
1080.9280,0.156550
1082.7916,0.154503
1084.6553,0.152482
1086.5190,0.150730
1088.3826,0.149238
1090.2463,0.147998
1092.1100,0.147367
1093.9737,0.147554
1095.8373,0.148295
1097.7010,0.149292
1099.5647,0.150361
1101.4283,0.151427
1103.2920,0.152175
1105.1557,0.152218
1107.0193,0.150820
1108.8830,0.147528
1110.7467,0.142607
1112.6103,0.136900
1114.4740,0.130917
1116.3377,0.125369
1118.2014,0.120732
1120.0650,0.117035
1121.9287,0.114130
1123.7924,0.111866
1125.6560,0.109894
1127.5197,0.107970
1129.3834,0.106142
1131.2470,0.104385
1133.1107,0.102756
1134.9744,0.101300
1136.8380,0.099981
1138.7017,0.099012
1140.5654,0.098344
1142.4290,0.097860
1144.2927,0.097562
1146.1564,0.097291
1148.0201,0.096866
1149.8837,0.096344
1151.7474,0.095754
1153.6111,0.094982
1155.4747,0.094014
1157.3384,0.092986
1159.2021,0.091789
1161.0657,0.090589
1162.9294,0.089580
1164.7931,0.088782
1166.6567,0.088324
1168.5204,0.088046
1170.3841,0.087766
1172.2477,0.087226
1174.1114,0.086000
1175.9751,0.084009
1177.8388,0.081722
1179.7024,0.079925
1181.5661,0.079038
1183.4298,0.078794
1185.2934,0.078953
1187.1571,0.079474
1189.0208,0.079959
1190.8844,0.080303
1192.7481,0.080803
1194.6118,0.081528
1196.4754,0.082345
1198.3391,0.083294
1200.2028,0.084403
1202.0665,0.085499
1203.9301,0.086210
1205.7938,0.086404
1207.6575,0.086589
1209.5211,0.087056
1211.3848,0.087861
1213.2485,0.088891
1215.1121,0.090121
1216.9758,0.091455
1218.8395,0.092566
1220.7031,0.093469
1222.5668,0.094414
1224.4305,0.095455
1226.2941,0.096268
1228.1578,0.096841
1230.0215,0.097296
1231.8852,0.097516
1233.7488,0.097656
1235.6125,0.097679
1237.4762,0.097633
1239.3398,0.097611
1241.2035,0.097460
1243.0672,0.097323
1244.9308,0.097304
1246.7945,0.097260
1248.6582,0.097103
1250.5218,0.097007
1252.3855,0.097112
1254.2492,0.097203
1256.1129,0.097093
1257.9765,0.096860
1259.8402,0.096776
1261.7039,0.096666
1263.5675,0.096452
1265.4312,0.096434
1267.2949,0.096416
1269.1585,0.096356
1271.0222,0.096535
1272.8859,0.096887
1274.7495,0.097240
1276.6132,0.097808
1278.4769,0.098687
1280.3405,0.099781
1282.2042,0.100634
1284.0679,0.101133
1285.9316,0.101657
1287.7952,0.102468
1289.6589,0.103490
1291.5226,0.104693
1293.3862,0.106209
1295.2499,0.108113
1297.1136,0.110418
1298.9772,0.112986
1300.8409,0.115998
1302.7046,0.119371
1304.5682,0.122071
1306.4319,0.122701
1308.2956,0.119348
1310.1592,0.111930
1312.0229,0.104067
1313.8866,0.098699
1315.7503,0.096228
1317.6139,0.095936
1319.4776,0.096365
1321.3413,0.096419
1323.2049,0.096679
1325.0686,0.097563
1326.9323,0.098736
1328.7959,0.100064
1330.6596,0.101485
1332.5233,0.102397
1334.3869,0.102349
1336.2506,0.102077
1338.1143,0.102746
1339.9780,0.104401
1341.8416,0.103889
1343.7053,0.102528
1345.5690,0.102171
1347.4326,0.102492
1349.2963,0.103402
1351.1600,0.104509
1353.0236,0.105679
1354.8873,0.107353
1356.7510,0.108827
1358.6146,0.109547
1360.4783,0.110779
1362.3420,0.114664
1364.2056,0.117693
1366.0693,0.117789
1367.9330,0.119427
1369.7967,0.121743
1371.6603,0.122885
1373.5240,0.126620
1375.3877,0.131353
1377.2513,0.132781
1379.1150,0.135092
1380.9787,0.138195
1382.8423,0.140680
1384.7060,0.143105
1386.5697,0.148089
1388.4333,0.153932
1390.2970,0.154557
1392.1607,0.153946
1394.0244,0.155214
1395.8880,0.155251
1397.7517,0.151867
1399.6154,0.147979
1401.4790,0.142524
1403.3427,0.138366
1405.2064,0.134690
1407.0700,0.127469
1408.9337,0.118848
1410.7974,0.111185
1412.6610,0.105124
1414.5247,0.100919
1416.3884,0.099423
1418.2520,0.102614
1420.1157,0.107493
1421.9794,0.106773
1423.8431,0.105390
1425.7067,0.101364
1427.5704,0.096862
1429.4341,0.095532
1431.2977,0.095622
1433.1614,0.094929
1435.0251,0.096263
1436.8887,0.102558
1438.7524,0.104662
1440.6161,0.103277
1442.4797,0.103636
1444.3434,0.104023
1446.2071,0.104840
1448.0707,0.106894
1449.9344,0.106365
1451.7981,0.103068
1453.6618,0.099086
1455.5254,0.097837
1457.3891,0.105183
1459.2528,0.105465
1461.1164,0.100226
1462.9801,0.098591
1464.8438,0.100963
1466.7074,0.100713
1468.5711,0.096908
1470.4348,0.094449
1472.2984,0.097029
1474.1621,0.100336
1476.0258,0.100209
1477.8895,0.099650
1479.7531,0.099706
1481.6168,0.102093
1483.4805,0.103685
1485.3441,0.104261
1487.2078,0.107608
1489.0715,0.115503
1490.9351,0.122596
1492.7988,0.120789
1494.6625,0.120071
1496.5261,0.126220
1498.3898,0.133257
1500.2535,0.133835
1502.1171,0.131742
1503.9808,0.129959
1505.8445,0.134765
1507.7082,0.155631
1509.5718,0.154049
1511.4355,0.149978
1513.2992,0.148742
1515.1628,0.148597
1517.0265,0.150819
1518.8902,0.150143
1520.7538,0.151334
1522.6175,0.155515
1524.4812,0.154202
1526.3448,0.154927
1528.2085,0.155163
1530.0722,0.152750
1531.9359,0.152101
1533.7995,0.155105
1535.6632,0.152460
1537.5269,0.148348
1539.3905,0.150351
1541.2542,0.157750
1543.1179,0.155925
1544.9815,0.153810
1546.8452,0.149436
1548.7089,0.146479
1550.5725,0.145186
1552.4362,0.142443
1554.2999,0.139949
1556.1635,0.136904
1558.0272,0.139288
1559.8909,0.150245
1561.7546,0.141034
1563.6182,0.136059
1565.4819,0.134583
1567.3456,0.133417
1569.2092,0.134722
1571.0729,0.135146
1572.9366,0.131945
1574.8002,0.131817
1576.6639,0.136566
1578.5276,0.136391
1580.3912,0.134305
1582.2549,0.134363
1584.1186,0.134941
1585.9822,0.135214
1587.8459,0.135486
1589.7096,0.136097
1591.5733,0.136863
1593.4369,0.137735
1595.3006,0.138669
1597.1643,0.139399
1599.0279,0.140167
1600.8916,0.141297
1602.7553,0.142827
1604.6189,0.144459
1606.4826,0.146419
1608.3463,0.149521
1610.2099,0.152343
1612.0736,0.153452
1613.9373,0.153864
1615.8010,0.157480
1617.6646,0.163012
1619.5283,0.161402
1621.3920,0.160173
1623.2556,0.162847
1625.1193,0.163568
1626.9830,0.161429
1628.8466,0.159103
1630.7103,0.154767
1632.5740,0.149657
1634.4376,0.146679
1636.3013,0.146134
1638.1650,0.142434
1640.0286,0.137966
1641.8923,0.134276
1643.7560,0.131335
1645.6197,0.130627
1647.4833,0.131556
1649.3470,0.128506
1651.2107,0.125959
1653.0743,0.128879
1654.9380,0.129263
1656.8017,0.123864
1658.6653,0.120060
1660.5290,0.116849
1662.3927,0.114042
1664.2563,0.109888
1666.1200,0.105202
1667.9837,0.101941
1669.8474,0.099255
1671.7110,0.095626
1673.5747,0.092735
1675.4384,0.091352
1677.3020,0.089250
1679.1657,0.087067
1681.0294,0.085287
1682.8930,0.084414
1684.7567,0.084720
1686.6204,0.081599
1688.4840,0.078143
1690.3477,0.073908
1692.2114,0.068933
1694.0750,0.064586
1695.9387,0.059673
1697.8024,0.054441
1699.6661,0.051607
1701.5297,0.046747
1703.3934,0.042834
1705.2571,0.039540
1707.1207,0.035036
1708.9844,0.031800
1710.8481,0.029295
1712.7117,0.026991
1714.5754,0.025120
1716.4391,0.023639
1718.3027,0.022825
1720.1664,0.022455
1722.0301,0.022075
1723.8937,0.021566
1725.7574,0.020780
1727.6211,0.019897
1729.4848,0.019066
1731.3484,0.018285
1733.2121,0.017848
1735.0758,0.017855
1736.9394,0.017375
1738.8031,0.017124
1740.6668,0.017336
1742.5304,0.017517
1744.3941,0.017273
1746.2578,0.016864
1748.1214,0.016573
1749.9851,0.016468
1751.8488,0.016154
1753.7125,0.015756
1755.5761,0.015490
1757.4398,0.015336
1759.3035,0.015016
1761.1671,0.014861
1763.0308,0.014862
1764.8945,0.014751
1766.7581,0.014505
1768.6218,0.014297
1770.4855,0.014005
1772.3491,0.013949
1774.2128,0.014172
1776.0765,0.014198
1777.9401,0.014181
1779.8038,0.014301
1781.6675,0.014280
1783.5312,0.014116
1785.3948,0.014199
1787.2585,0.014372
1789.1222,0.014227
1790.9858,0.014113
1792.8495,0.014356
1794.7132,0.014320
1796.5768,0.014148
1798.4405,0.014235
1800.3042,0.014424
1802.1678,0.014463
1804.0315,0.014517
1805.8952,0.014730
1807.7589,0.014728
1809.6225,0.014501
1811.4862,0.014391
1813.3499,0.014401
1815.2135,0.014345
1817.0772,0.014506
1818.9409,0.014735
1820.8045,0.014784
1822.6682,0.014855
1824.5319,0.014877
1826.3955,0.014474
1828.2592,0.014064
1830.1229,0.014182
1831.9865,0.014173
1833.8502,0.013891
1835.7139,0.013797
1837.5776,0.013697
1839.4412,0.013659
1841.3049,0.013656
1843.1686,0.013398
1845.0322,0.013255
1846.8959,0.013481
1848.7596,0.013629
1850.6232,0.013847
1852.4869,0.013871
1854.3506,0.013905
1856.2142,0.013982
1858.0779,0.013928
1859.9416,0.013938
1861.8052,0.013969
1863.6689,0.013649
1865.5326,0.013518
1867.3963,0.013545
1869.2599,0.013315
1871.1236,0.013479
1872.9873,0.013754
1874.8509,0.013742
1876.7146,0.013525
1878.5783,0.013430
1880.4419,0.013557
1882.3056,0.013231
1884.1693,0.012718
1886.0329,0.012878
1887.8966,0.013093
1889.7603,0.012731
1891.6240,0.012623
1893.4876,0.012815
1895.3513,0.013068
1897.2150,0.013352
1899.0786,0.013435
1900.9423,0.013105
1902.8060,0.012887
1904.6696,0.012864
1906.5333,0.012652
1908.3970,0.012416
1910.2606,0.012723
1912.1243,0.013409
1913.9880,0.013371
1915.8516,0.012723
1917.7153,0.012121
1919.5790,0.011672
1921.4427,0.011417
1923.3063,0.011270
1925.1700,0.011761
1927.0337,0.011635
1928.8973,0.010813
1930.7610,0.011010
1932.6247,0.011485
1934.4883,0.011561
1936.3520,0.011621
1938.2157,0.011315
1940.0793,0.011180
1941.9430,0.011167
1943.8067,0.009762
1945.6704,0.009194
1947.5340,0.009433
1949.3977,0.008603
1951.2614,0.008216
1953.1250,0.008328
1954.9887,0.008206
1956.8524,0.007541
1958.7160,0.005899
1960.5797,0.004567
1962.4434,0.005106
1964.3070,0.006279
1966.1707,0.006059
1968.0344,0.004633
1969.8980,0.003710
1971.7617,0.003767
1973.6254,0.003598
1975.4891,0.002425
1977.3527,0.001488
1979.2164,0.003216
1981.0801,0.004743
1982.9437,0.004250
1984.8074,0.004278
1986.6711,0.004534
1988.5347,0.004012
1990.3984,0.003892
1992.2621,0.004076
1994.1257,0.003791
1995.9894,0.004135
1997.8531,0.004601
1999.7167,0.004961
2001.5804,0.005796
2003.4441,0.005698
2005.3078,0.004716
2007.1714,0.004069
2009.0351,0.003931
2010.8988,0.003967
2012.7624,0.003845
2014.6261,0.002895
2016.4898,0.002066
2018.3534,0.001286
2020.2171,0.000748
2022.0808,0.001182
2023.9444,0.001075
2025.8081,0.000549
2027.6718,0.000826
2029.5355,0.000979
2031.3991,0.000364
2033.2628,0.001536
2035.1265,0.003156
2036.9901,0.003546
2038.8538,0.004161
2040.7175,0.003975
2042.5811,0.004545
2044.4448,0.006395
2046.3085,0.006755
2048.1721,0.006209
2050.0358,0.007782
2051.8995,0.009879
2053.7631,0.009769
2055.6268,0.009766
2057.4905,0.010588
2059.3542,0.011005
2061.2178,0.011161
2063.0815,0.011398
2064.9452,0.011818
2066.8088,0.011820
2068.6725,0.011611
2070.5362,0.011970
2072.3998,0.012369
2074.2635,0.012788
2076.1272,0.013283
2077.9908,0.014097
2079.8545,0.014263
2081.7182,0.013848
2083.5819,0.013972
2085.4455,0.014104
2087.3092,0.013318
2089.1729,0.013001
2091.0365,0.013739
2092.9002,0.014309
2094.7639,0.014133
2096.6275,0.013848
2098.4912,0.013797
2100.3549,0.014685
2102.2185,0.015275
2104.0822,0.014579
2105.9459,0.014745
2107.8095,0.015318
2109.6732,0.015151
2111.5369,0.015224
2113.4006,0.015276
2115.2642,0.015010
2117.1279,0.015008
2118.9916,0.015474
2120.8552,0.015314
2122.7189,0.014599
2124.5826,0.014175
2126.4462,0.013983
2128.3099,0.014236
2130.1736,0.013638
2132.0372,0.012217
2133.9009,0.011196
2135.7646,0.010497
2137.6282,0.010630
2139.4919,0.010219
2141.3556,0.008893
2143.2193,0.007873
2145.0829,0.007737
2146.9466,0.008421
2148.8103,0.008505
2150.6739,0.007175
2152.5376,0.005180
2154.4013,0.002949
2156.2649,-0.000129
2158.1286,-0.001139
2159.9923,0.000996
2161.8559,0.003125
2163.7196,0.004764
2165.5833,0.005442
2167.4470,0.005460
2169.3106,0.005203
2171.1743,0.004830
2173.0380,0.004889
2174.9016,0.005855
2176.7653,0.006481
2178.6290,0.006974
2180.4926,0.007582
2182.3563,0.008263
2184.2200,0.008718
2186.0836,0.008861
2187.9473,0.008839
2189.8110,0.009318
2191.6746,0.010180
2193.5383,0.010370
2195.4020,0.010629
2197.2657,0.010593
2199.1293,0.010570
2200.9930,0.010991
2202.8567,0.011317
2204.7203,0.011492
2206.5840,0.011329
2208.4477,0.011870
2210.3113,0.012771
2212.1750,0.013510
2214.0387,0.013075
2215.9023,0.012230
2217.7660,0.012663
2219.6297,0.013019
2221.4934,0.013409
2223.3570,0.014361
2225.2207,0.015033
2227.0844,0.015295
2228.9480,0.014723
2230.8117,0.014222
2232.6754,0.014954
2234.5390,0.015821
2236.4027,0.015396
2238.2664,0.014884
2240.1300,0.015837
2241.9937,0.016262
2243.8574,0.015959
2245.7210,0.016470
2247.5847,0.016721
2249.4484,0.016522
2251.3121,0.016740
2253.1757,0.017049
2255.0394,0.017260
2256.9031,0.017577
2258.7667,0.017925
2260.6304,0.018171
2262.4941,0.018286
2264.3577,0.018344
2266.2214,0.018640
2268.0851,0.018572
2269.9487,0.018523
2271.8124,0.019163
2273.6761,0.019995
2275.5397,0.020518
2277.4034,0.020471
2279.2671,0.020565
2281.1308,0.020952
2282.9944,0.021224
2284.8581,0.021955
2286.7218,0.022808
2288.5854,0.022762
2290.4491,0.022502
2292.3128,0.022457
2294.1764,0.022371
2296.0401,0.022510
2297.9038,0.022598
2299.7674,0.022531
2301.6311,0.022550
2303.4948,0.022581
2305.3585,0.022723
2307.2221,0.022985
2309.0858,0.022854
2310.9495,0.022180
2312.8131,0.022120
2314.6768,0.022884
2316.5405,0.023195
2318.4041,0.023180
2320.2678,0.023515
2322.1315,0.024044
2323.9951,0.024205
2325.8588,0.023743
2327.7225,0.023070
2329.5861,0.022563
2331.4498,0.022353
2333.3135,0.022441
2335.1772,0.022376
2337.0408,0.022327
2338.9045,0.022492
2340.7682,0.022833
2342.6318,0.023208
2344.4955,0.023261
2346.3592,0.023012
2348.2228,0.022782
2350.0865,0.022460
2351.9502,0.022099
2353.8138,0.021991
2355.6775,0.021937
2357.5412,0.022115
2359.4049,0.022457
2361.2685,0.022437
2363.1322,0.022203
2364.9959,0.022096
2366.8595,0.022252
2368.7232,0.022595
2370.5869,0.022996
2372.4505,0.023174
2374.3142,0.023511
2376.1779,0.023924
2378.0415,0.023988
2379.9052,0.023948
2381.7689,0.023726
2383.6325,0.023611
2385.4962,0.023825
2387.3599,0.023967
2389.2236,0.023834
2391.0872,0.023672
2392.9509,0.023774
2394.8146,0.023887
2396.6782,0.023900
2398.5419,0.023990
2400.4056,0.024172
2402.2692,0.024351
2404.1329,0.024324
2405.9966,0.024160
2407.8602,0.024234
2409.7239,0.024620
2411.5876,0.024650
2413.4512,0.024228
2415.3149,0.024358
2417.1786,0.024826
2419.0423,0.024947
2420.9059,0.025028
2422.7696,0.025178
2424.6333,0.025259
2426.4969,0.025205
2428.3606,0.024956
2430.2243,0.024854
2432.0879,0.025179
2433.9516,0.025736
2435.8153,0.025709
2437.6789,0.025394
2439.5426,0.025471
2441.4063,0.025518
2443.2700,0.025778
2445.1336,0.026095
2446.9973,0.025959
2448.8610,0.025943
2450.7246,0.026080
2452.5883,0.026106
2454.4520,0.026256
2456.3156,0.026530
2458.1793,0.026574
2460.0430,0.026429
2461.9066,0.026365
2463.7703,0.026374
2465.6340,0.026435
2467.4976,0.026257
2469.3613,0.026007
2471.2250,0.026227
2473.0887,0.026635
2474.9523,0.026750
2476.8160,0.026591
2478.6797,0.026248
2480.5433,0.026351
2482.4070,0.026896
2484.2707,0.027103
2486.1343,0.027163
2487.9980,0.027427
2489.8617,0.027739
2491.7253,0.027951
2493.5890,0.028084
2495.4527,0.028219
2497.3164,0.028141
2499.1800,0.028051
2501.0437,0.028333
2502.9074,0.028639
2504.7710,0.028719
2506.6347,0.028476
2508.4984,0.028118
2510.3620,0.028377
2512.2257,0.028872
2514.0894,0.028865
2515.9530,0.028665
2517.8167,0.028816
2519.6804,0.029163
2521.5440,0.029256
2523.4077,0.029512
2525.2714,0.029893
2527.1351,0.029788
