Wavenumber,Intensity
650.4205,0.197150
652.2841,0.207349
654.1478,0.218342
656.0115,0.228357
657.8751,0.240940
659.7388,0.256786
661.6025,0.274532
663.4661,0.285948
665.3298,0.295050
667.1935,0.303243
669.0571,0.299996
670.9208,0.277120
672.7845,0.254928
674.6481,0.233809
676.5118,0.219049
678.3755,0.209687
680.2392,0.203210
682.1028,0.196536
683.9665,0.188543
685.8302,0.178908
687.6938,0.170868
689.5575,0.162593
691.4212,0.154592
693.2848,0.146925
695.1485,0.139849
697.0122,0.134193
698.8758,0.130627
700.7395,0.128226
702.6032,0.126685
704.4669,0.124222
706.3305,0.121271
708.1942,0.118760
710.0579,0.116051
711.9215,0.112680
713.7852,0.109939
715.6489,0.106789
717.5125,0.103728
719.3762,0.101943
721.2399,0.100232
723.1035,0.098817
724.9672,0.097369
726.8309,0.094970
728.6945,0.093389
730.5582,0.093278
732.4219,0.093407
734.2856,0.092975
736.1492,0.093074
738.0129,0.094609
739.8766,0.097106
741.7402,0.098474
743.6039,0.098961
745.4676,0.098899
747.3312,0.097421
749.1949,0.095530
751.0586,0.094909
752.9222,0.094602
754.7859,0.093774
756.6496,0.092595
758.5132,0.091954
760.3769,0.091921
762.2406,0.091892
764.1043,0.092308
765.9679,0.092886
767.8316,0.092807
769.6953,0.092667
771.5589,0.093310
773.4226,0.094783
775.2863,0.096110
777.1499,0.097564
779.0136,0.099096
780.8773,0.099760
782.7409,0.099553
784.6046,0.099792
786.4683,0.100325
788.3320,0.100731
790.1956,0.101545
792.0593,0.102428
793.9230,0.102964
795.7866,0.104036
797.6503,0.105069
799.5140,0.105403
801.3776,0.106392
803.2413,0.107765
805.1050,0.107997
806.9686,0.107883
808.8323,0.108070
810.6960,0.108268
812.5596,0.107472
814.4233,0.106315
816.2870,0.106024
818.1507,0.106235
820.0143,0.106556
821.8780,0.106924
823.7417,0.107406
825.6053,0.108418
827.4690,0.110036
829.3327,0.111950
831.1963,0.112113
833.0600,0.109827
834.9237,0.107555
836.7873,0.107061
838.6510,0.107775
840.5147,0.108946
842.3784,0.110347
844.2420,0.112300
846.1057,0.114606
847.9694,0.116495
849.8330,0.117530
851.6967,0.117559
853.5604,0.117837
855.4240,0.118645
857.2877,0.119379
859.1514,0.120094
861.0150,0.121052
862.8787,0.122253
864.7424,0.123233
866.6060,0.124265
868.4697,0.125456
870.3334,0.126966
872.1971,0.128865
874.0607,0.130854
875.9244,0.132776
877.7881,0.134947
879.6517,0.136803
881.5154,0.138849
883.3791,0.140844
885.2427,0.142824
887.1064,0.144676
888.9701,0.146314
890.8337,0.147789
892.6974,0.149579
894.5611,0.151743
896.4247,0.153881
898.2884,0.155960
900.1521,0.158334
902.0158,0.160828
903.8794,0.163532
905.7431,0.166527
907.6068,0.170099
909.4704,0.174015
911.3341,0.178181
913.1978,0.182742
915.0614,0.186405
916.9251,0.186283
918.7888,0.183191
920.6524,0.180900
922.5161,0.180746
924.3798,0.182065
926.2435,0.184116
928.1071,0.186085
929.9708,0.187807
931.8345,0.189636
933.6981,0.192044
935.5618,0.194619
937.4255,0.197008
939.2891,0.199236
941.1528,0.201820
943.0165,0.204376
944.8801,0.206600
946.7438,0.208911
948.6075,0.211704
950.4711,0.214492
952.3348,0.217410
954.1985,0.220534
956.0622,0.224028
957.9258,0.227668
959.7895,0.231415
961.6532,0.235128
963.5168,0.238886
965.3805,0.242685
967.2442,0.246960
969.1078,0.251457
970.9715,0.256044
972.8352,0.260504
974.6988,0.265748
976.5625,0.272425
978.4262,0.281406
980.2899,0.292379
982.1535,0.298325
984.0172,0.291490
985.8809,0.282248
987.7445,0.280487
989.6082,0.283618
991.4719,0.287761
993.3355,0.291831
995.1992,0.295319
997.0629,0.298353
998.9265,0.301065
1000.7902,0.303648
1002.6539,0.305898
1004.5175,0.307753
1006.3812,0.308622
1008.2449,0.307684
1010.1086,0.304307
1011.9722,0.298650
1013.8359,0.290855
1015.6996,0.281482
1017.5632,0.270765
1019.4269,0.259297
1021.2906,0.247446
1023.1542,0.235860
1025.0179,0.224929
1026.8816,0.215034
1028.7452,0.206140
1030.6089,0.197892
1032.4726,0.190228
1034.3362,0.183149
1036.1999,0.176393
1038.0636,0.169891
1039.9273,0.163559
1041.7909,0.157565
1043.6546,0.151793
1045.5183,0.145891
1047.3819,0.139961
1049.2456,0.134354
1051.1093,0.128994
1052.9729,0.124216
1054.8366,0.120592
1056.7003,0.118272
1058.5639,0.116813
1060.4276,0.115778
1062.2913,0.115083
1064.1550,0.114488
1066.0186,0.114006
1067.8823,0.113876
1069.7460,0.113904
1071.6096,0.114304
1073.4733,0.114844
1075.3370,0.114994
1077.2006,0.114693
1079.0643,0.114064
1080.9280,0.113099
1082.7916,0.111924
1084.6553,0.110951
1086.5190,0.110147
1088.3826,0.109482
1090.2463,0.109218
1092.1100,0.109334
1093.9737,0.109850
1095.8373,0.110522
1097.7010,0.111214
1099.5647,0.111937
1101.4283,0.112484
1103.2920,0.112705
1105.1557,0.112341
1107.0193,0.111174
1108.8830,0.108980
1110.7467,0.105643
1112.6103,0.101654
1114.4740,0.097640
1116.3377,0.093826
1118.2014,0.090355
1120.0650,0.087606
1121.9287,0.085604
1123.7924,0.083960
1125.6560,0.082535
1127.5197,0.081271
1129.3834,0.079814
1131.2470,0.078200
1133.1107,0.076624
1134.9744,0.075151
1136.8380,0.073730
1138.7017,0.072611
1140.5654,0.071709
1142.4290,0.070905
1144.2927,0.070252
1146.1564,0.069441
1148.0201,0.068474
1149.8837,0.067473
1151.7474,0.066767
1153.6111,0.066338
1155.4747,0.065790
1157.3384,0.064914
1159.2021,0.063893
1161.0657,0.062869
1162.9294,0.062091
1164.7931,0.061635
1166.6567,0.061388
1168.5204,0.061372
1170.3841,0.061388
1172.2477,0.061282
1174.1114,0.060745
1175.9751,0.059666
1177.8388,0.058296
1179.7024,0.057078
1181.5661,0.056471
1183.4298,0.056338
1185.2934,0.056480
1187.1571,0.056683
1189.0208,0.056730
1190.8844,0.056760
1192.7481,0.056874
1194.6118,0.057042
1196.4754,0.057315
1198.3391,0.057729
1200.2028,0.058269
1202.0665,0.058839
1203.9301,0.059155
1205.7938,0.059196
1207.6575,0.059275
1209.5211,0.059466
1211.3848,0.059860
1213.2485,0.060517
1215.1121,0.061330
1216.9758,0.062154
1218.8395,0.062907
1220.7031,0.063529
1222.5668,0.064047
1224.4305,0.064653
1226.2941,0.065388
1228.1578,0.066013
1230.0215,0.066282
1231.8852,0.066035
1233.7488,0.065430
1235.6125,0.064977
1237.4762,0.064892
1239.3398,0.065005
1241.2035,0.065068
1243.0672,0.065137
1244.9308,0.065254
1246.7945,0.065322
1248.6582,0.065499
1250.5218,0.065634
1252.3855,0.065729
1254.2492,0.065850
1256.1129,0.065887
1257.9765,0.065870
1259.8402,0.065984
1261.7039,0.066103
1263.5675,0.066088
1265.4312,0.066106
1267.2949,0.066077
1269.1585,0.065954
1271.0222,0.066087
1272.8859,0.066497
1274.7495,0.066837
1276.6132,0.067230
1278.4769,0.067859
1280.3405,0.068672
1282.2042,0.069434
1284.0679,0.070008
1285.9316,0.070509
1287.7952,0.071208
1289.6589,0.072079
1291.5226,0.073011
1293.3862,0.074188
1295.2499,0.075747
1297.1136,0.077628
1298.9772,0.079752
1300.8409,0.082337
1302.7046,0.085132
1304.5682,0.087351
1306.4319,0.087897
1308.2956,0.085548
1310.1592,0.080416
1312.0229,0.075183
1313.8866,0.071872
1315.7503,0.070379
1317.6139,0.070094
1319.4776,0.070455
1321.3413,0.070778
1323.2049,0.071186
1325.0686,0.072010
1326.9323,0.072961
1328.7959,0.073884
1330.6596,0.074633
1332.5233,0.074914
1334.3869,0.074560
1336.2506,0.074039
1338.1143,0.073987
1339.9780,0.074526
1341.8416,0.073734
1343.7053,0.072787
1345.5690,0.072955
1347.4326,0.073740
1349.2963,0.075016
1351.1600,0.076221
1353.0236,0.077125
1354.8873,0.078396
1356.7510,0.079430
1358.6146,0.079228
1360.4783,0.078588
1362.3420,0.079456
1364.2056,0.080366
1366.0693,0.080289
1367.9330,0.081585
1369.7967,0.083537
1371.6603,0.084665
1373.5240,0.087544
1375.3877,0.091210
1377.2513,0.092473
1379.1150,0.094088
1380.9787,0.096031
1382.8423,0.097509
1384.7060,0.099211
1386.5697,0.102996
1388.4333,0.107478
1390.2970,0.108458
1392.1607,0.108843
1394.0244,0.110626
1395.8880,0.111486
1397.7517,0.109628
1399.6154,0.107392
1401.4790,0.103849
1403.3427,0.101372
1405.2064,0.099543
1407.0700,0.095069
1408.9337,0.089272
1410.7974,0.083941
1412.6610,0.079544
1414.5247,0.076199
1416.3884,0.074572
1418.2520,0.076167
1420.1157,0.078831
1421.9794,0.077812
1423.8431,0.076336
1425.7067,0.072892
1427.5704,0.069172
1429.4341,0.067541
1431.2977,0.066869
1433.1614,0.066043
1435.0251,0.066873
1436.8887,0.071350
1438.7524,0.073017
1440.6161,0.072189
1442.4797,0.072647
1444.3434,0.073206
1446.2071,0.074098
1448.0707,0.076018
1449.9344,0.076121
1451.7981,0.074167
1453.6618,0.071989
1455.5254,0.071879
1457.3891,0.076947
1459.2528,0.075568
1461.1164,0.071117
1462.9801,0.069751
1464.8438,0.071487
1466.7074,0.071263
1468.5711,0.068626
1470.4348,0.067196
1472.2984,0.069304
1474.1621,0.071592
1476.0258,0.071079
1477.8895,0.070195
1479.7531,0.069803
1481.6168,0.071045
1483.4805,0.072022
1485.3441,0.072559
1487.2078,0.074740
1489.0715,0.079946
1490.9351,0.084821
1492.7988,0.083523
1494.6625,0.082943
1496.5261,0.087003
1498.3898,0.091411
1500.2535,0.091629
1502.1171,0.090223
1503.9808,0.089136
1505.8445,0.092960
1507.7082,0.107809
1509.5718,0.105986
1511.4355,0.103203
1513.2992,0.102797
1515.1628,0.103132
1517.0265,0.104842
1518.8902,0.104380
1520.7538,0.105717
1522.6175,0.108574
1524.4812,0.106993
1526.3448,0.107383
1528.2085,0.107608
1530.0722,0.105975
1531.9359,0.105757
1533.7995,0.108182
1535.6632,0.106463
1537.5269,0.103862
1539.3905,0.106117
1541.2542,0.112060
1543.1179,0.110567
1544.9815,0.109441
1546.8452,0.106868
1548.7089,0.105253
1550.5725,0.105044
1552.4362,0.103635
1554.2999,0.102371
1556.1635,0.100786
1558.0272,0.103029
1559.8909,0.110965
1561.7546,0.103747
1563.6182,0.100411
1565.4819,0.099740
1567.3456,0.099246
1569.2092,0.100474
1571.0729,0.101018
1572.9366,0.098890
1574.8002,0.099128
1576.6639,0.102895
1578.5276,0.102604
1580.3912,0.100948
1582.2549,0.100877
1584.1186,0.101208
1585.9822,0.101361
1587.8459,0.101358
1589.7096,0.101480
1591.5733,0.101402
1593.4369,0.101658
1595.3006,0.102454
1597.1643,0.102726
1599.0279,0.102635
1600.8916,0.103124
1602.7553,0.104003
1604.6189,0.104648
1606.4826,0.105267
1608.3463,0.106785
1610.2099,0.108039
1612.0736,0.108306
1613.9373,0.108495
1615.8010,0.110880
1617.6646,0.113725
1619.5283,0.111697
1621.3920,0.110454
1623.2556,0.111916
1625.1193,0.112124
1626.9830,0.110931
1628.8466,0.109321
1630.7103,0.106129
1632.5740,0.102910
1634.4376,0.101707
1636.3013,0.101594
1638.1650,0.097688
1640.0286,0.093952
1641.8923,0.091104
1643.7560,0.089278
1645.6197,0.089674
1647.4833,0.090662
1649.3470,0.087715
1651.2107,0.086267
1653.0743,0.090191
1654.9380,0.091054
1656.8017,0.086897
1658.6653,0.084672
1660.5290,0.083178
1662.3927,0.082096
1664.2563,0.079664
1666.1200,0.076501
1667.9837,0.074336
1669.8474,0.072342
1671.7110,0.069319
1673.5747,0.067148
1675.4384,0.065870
1677.3020,0.063475
1679.1657,0.061484
1681.0294,0.060142
1682.8930,0.059603
1684.7567,0.059754
1686.6204,0.056608
1688.4840,0.054143
1690.3477,0.051553
1692.2114,0.048348
1694.0750,0.045607
1695.9387,0.042693
1697.8024,0.039217
1699.6661,0.037627
1701.5297,0.034515
1703.3934,0.031256
1705.2571,0.028924
1707.1207,0.026067
1708.9844,0.023736
1710.8481,0.021883
1712.7117,0.020300
1714.5754,0.019090
1716.4391,0.018432
1718.3027,0.018357
1720.1664,0.017572
1722.0301,0.016789
1723.8937,0.016328
1725.7574,0.015721
1727.6211,0.015053
1729.4848,0.014377
1731.3484,0.013668
1733.2121,0.013389
1735.0758,0.013718
1736.9394,0.013275
1738.8031,0.012829
1740.6668,0.012755
1742.5304,0.012723
1744.3941,0.012494
1746.2578,0.012256
1748.1214,0.012318
1749.9851,0.012373
1751.8488,0.012058
1753.7125,0.011665
1755.5761,0.011394
1757.4398,0.011403
1759.3035,0.011389
1761.1671,0.011484
1763.0308,0.011507
1764.8945,0.011151
1766.7581,0.010962
1768.6218,0.010891
1770.4855,0.010698
1772.3491,0.010806
1774.2128,0.010930
1776.0765,0.010884
1777.9401,0.011000
1779.8038,0.011118
1781.6675,0.011092
1783.5312,0.010997
1785.3948,0.011039
1787.2585,0.011065
1789.1222,0.010895
1790.9858,0.010824
1792.8495,0.010969
1794.7132,0.011062
1796.5768,0.011218
1798.4405,0.011150
1800.3042,0.010997
1802.1678,0.011263
1804.0315,0.011364
1805.8952,0.011311
1807.7589,0.011198
1809.6225,0.011191
1811.4862,0.011415
1813.3499,0.011368
1815.2135,0.011214
1817.0772,0.011338
1818.9409,0.011520
1820.8045,0.011485
1822.6682,0.011467
1824.5319,0.011616
1826.3955,0.011640
1828.2592,0.011443
1830.1229,0.011393
1831.9865,0.011186
1833.8502,0.011029
1835.7139,0.011171
1837.5776,0.011231
1839.4412,0.011149
1841.3049,0.010898
1843.1686,0.010653
1845.0322,0.010790
1846.8959,0.011102
1848.7596,0.011174
1850.6232,0.010951
1852.4869,0.010752
1854.3506,0.010895
1856.2142,0.011085
1858.0779,0.011158
1859.9416,0.011048
1861.8052,0.010902
1863.6689,0.010870
1865.5326,0.010882
1867.3963,0.010810
1869.2599,0.010592
1871.1236,0.010561
1872.9873,0.010714
1874.8509,0.010823
1876.7146,0.010804
1878.5783,0.010815
1880.4419,0.010897
1882.3056,0.010885
1884.1693,0.010888
1886.0329,0.010863
1887.8966,0.010542
1889.7603,0.010221
1891.6240,0.010389
1893.4876,0.010397
1895.3513,0.010294
1897.2150,0.010147
1899.0786,0.010216
1900.9423,0.010537
1902.8060,0.010586
1904.6696,0.010459
1906.5333,0.010354
1908.3970,0.010075
1910.2606,0.010121
1912.1243,0.010088
1913.9880,0.009862
1915.8516,0.010001
1917.7153,0.010437
1919.5790,0.010719
1921.4427,0.010738
1923.3063,0.010267
1925.1700,0.009831
1927.0337,0.009482
1928.8973,0.009272
1930.7610,0.009347
1932.6247,0.009443
1934.4883,0.009593
1936.3520,0.009475
1938.2157,0.009373
1940.0793,0.009440
1941.9430,0.008815
1943.8067,0.008171
1945.6704,0.007931
1947.5340,0.007610
1949.3977,0.007353
1951.2614,0.007465
1953.1250,0.007032
1954.9887,0.006663
1956.8524,0.006909
1958.7160,0.006247
1960.5797,0.005580
1962.4434,0.005418
1964.3070,0.005200
1966.1707,0.004890
1968.0344,0.003998
1969.8980,0.003791
1971.7617,0.003570
1973.6254,0.003062
1975.4891,0.003523
1977.3527,0.003498
1979.2164,0.004201
1981.0801,0.005767
1982.9437,0.005173
1984.8074,0.004241
1986.6711,0.004922
1988.5347,0.005710
1990.3984,0.005681
1992.2621,0.005228
1994.1257,0.005034
1995.9894,0.005056
1997.8531,0.005249
1999.7167,0.004902
2001.5804,0.003724
2003.4441,0.003690
2005.3078,0.003448
2007.1714,0.002849
2009.0351,0.003558
2010.8988,0.003522
2012.7624,0.002542
2014.6261,0.002787
2016.4898,0.003081
2018.3534,0.002400
2020.2171,0.002111
2022.0808,0.003562
2023.9444,0.004655
2025.8081,0.004569
2027.6718,0.004405
2029.5355,0.003600
2031.3991,0.001717
2033.2628,0.001328
2035.1265,0.003812
2036.9901,0.005978
2038.8538,0.005529
2040.7175,0.004352
2042.5811,0.004786
2044.4448,0.005567
2046.3085,0.006061
2048.1721,0.007010
2050.0358,0.008071
2051.8995,0.008617
2053.7631,0.008159
2055.6268,0.008436
2057.4905,0.009066
2059.3542,0.009216
2061.2178,0.009974
2063.0815,0.010842
2064.9452,0.010830
2066.8088,0.010733
2068.6725,0.010415
2070.5362,0.009852
2072.3998,0.010288
2074.2635,0.011034
2076.1272,0.011853
2077.9908,0.012205
2079.8545,0.011399
2081.7182,0.011318
2083.5819,0.012009
2085.4455,0.012133
2087.3092,0.012096
2089.1729,0.011833
2091.0365,0.011763
2092.9002,0.012273
2094.7639,0.012371
2096.6275,0.011790
2098.4912,0.011974
2100.3549,0.012842
2102.2185,0.012931
2104.0822,0.012862
2105.9459,0.012731
2107.8095,0.012181
2109.6732,0.012332
2111.5369,0.012865
2113.4006,0.012911
2115.2642,0.013079
2117.1279,0.013673
2118.9916,0.013613
2120.8552,0.012700
2122.7189,0.011646
2124.5826,0.011354
2126.4462,0.011771
2128.3099,0.011459
2130.1736,0.010893
2132.0372,0.010429
2133.9009,0.009574
2135.7646,0.009486
2137.6282,0.009788
2139.4919,0.009262
2141.3556,0.008675
2143.2193,0.008229
2145.0829,0.008055
2146.9466,0.007569
2148.8103,0.006436
2150.6739,0.005167
2152.5376,0.004952
2154.4013,0.004475
2156.2649,0.002757
2158.1286,0.002779
2159.9923,0.004432
2161.8559,0.004959
2163.7196,0.004780
2165.5833,0.005256
2167.4470,0.005882
2169.3106,0.006141
2171.1743,0.005800
2173.0380,0.004691
2174.9016,0.005414
2176.7653,0.007083
2178.6290,0.006871
2180.4926,0.007127
2182.3563,0.007663
2184.2200,0.007438
2186.0836,0.008360
2187.9473,0.008709
2189.8110,0.007928
2191.6746,0.008433
2193.5383,0.009464
2195.4020,0.010535
2197.2657,0.010703
2199.1293,0.009475
2200.9930,0.010113
2202.8567,0.011801
2204.7203,0.011797
2206.5840,0.010581
2208.4477,0.010093
2210.3113,0.011556
2212.1750,0.012613
2214.0387,0.011818
2215.9023,0.011097
2217.7660,0.011585
2219.6297,0.012400
2221.4934,0.012595
2223.3570,0.012840
2225.2207,0.012594
2227.0844,0.012578
2228.9480,0.013036
2230.8117,0.012928
2232.6754,0.013440
2234.5390,0.013614
2236.4027,0.012862
2238.2664,0.012733
2240.1300,0.013679
2241.9937,0.014351
2243.8574,0.014216
2245.7210,0.014346
2247.5847,0.014776
2249.4484,0.014631
2251.3121,0.014340
2253.1757,0.014556
2255.0394,0.014883
2256.9031,0.014738
2258.7667,0.015048
2260.6304,0.015561
2262.4941,0.015459
2264.3577,0.015759
2266.2214,0.016133
2268.0851,0.016178
2269.9487,0.016354
2271.8124,0.016351
2273.6761,0.016317
2275.5397,0.016788
2277.4034,0.017280
2279.2671,0.017618
2281.1308,0.018311
2282.9944,0.018691
2284.8581,0.018499
2286.7218,0.018422
2288.5854,0.018529
2290.4491,0.018553
2292.3128,0.018302
2294.1764,0.018540
2296.0401,0.019177
2297.9038,0.019166
2299.7674,0.018839
2301.6311,0.018815
2303.4948,0.019030
2305.3585,0.019237
2307.2221,0.019283
2309.0858,0.019030
2310.9495,0.018938
2312.8131,0.019153
2314.6768,0.019200
2316.5405,0.019410
2318.4041,0.019737
2320.2678,0.019816
2322.1315,0.019730
2323.9951,0.019851
2325.8588,0.019815
2327.7225,0.018928
2329.5861,0.018598
2331.4498,0.018939
2333.3135,0.018930
2335.1772,0.018947
2337.0408,0.018882
2338.9045,0.018907
2340.7682,0.019183
2342.6318,0.019425
2344.4955,0.019735
2346.3592,0.019783
2348.2228,0.019361
2350.0865,0.018759
2351.9502,0.018652
2353.8138,0.019084
2355.6775,0.019081
2357.5412,0.018570
2359.4049,0.018329
2361.2685,0.018569
2363.1322,0.018701
2364.9959,0.018838
2366.8595,0.019067
2368.7232,0.019095
2370.5869,0.019149
2372.4505,0.019394
2374.3142,0.019785
2376.1779,0.020266
2378.0415,0.020667
2379.9052,0.020563
2381.7689,0.020034
2383.6325,0.019795
2385.4962,0.020053
2387.3599,0.020271
2389.2236,0.020282
2391.0872,0.020297
2392.9509,0.020409
2394.8146,0.020311
2396.6782,0.020223
2398.5419,0.020468
2400.4056,0.020529
2402.2692,0.020329
2404.1329,0.020064
2405.9966,0.020134
2407.8602,0.020634
2409.7239,0.020761
2411.5876,0.020422
2413.4512,0.020461
2415.3149,0.020679
2417.1786,0.020505
2419.0423,0.020726
2420.9059,0.021190
2422.7696,0.021156
2424.6333,0.021226
2426.4969,0.021379
2428.3606,0.021174
2430.2243,0.020995
2432.0879,0.021224
2433.9516,0.021421
2435.8153,0.021464
2437.6789,0.021600
2439.5426,0.021624
2441.4063,0.021766
2443.2700,0.022035
2445.1336,0.021989
2446.9973,0.022092
2448.8610,0.022346
2450.7246,0.022071
2452.5883,0.021922
2454.4520,0.021884
2456.3156,0.021448
2458.1793,0.021410
2460.0430,0.022168
2461.9066,0.022591
2463.7703,0.022497
2465.6340,0.022540
2467.4976,0.022426
2469.3613,0.022232
2471.2250,0.022098
2473.0887,0.022080
2474.9523,0.022299
2476.8160,0.022297
2478.6797,0.022385
2480.5433,0.022526
2482.4070,0.022325
2484.2707,0.022499
2486.1343,0.022816
2487.9980,0.023028
2489.8617,0.023634
2491.7253,0.024199
2493.5890,0.024233
2495.4527,0.023873
2497.3164,0.023423
2499.1800,0.023336
2501.0437,0.023608
2502.9074,0.023948
2504.7710,0.024097
2506.6347,0.024112
2508.4984,0.024071
2510.3620,0.023925
2512.2257,0.024015
2514.0894,0.024249
2515.9530,0.024174
2517.8167,0.024055
2519.6804,0.024286
2521.5440,0.024568
2523.4077,0.024607
2525.2714,0.024808
2527.1351,0.024834
