Wavenumber,Intensity
650.4205,0.145730
652.2841,0.141784
654.1478,0.135870
656.0115,0.128195
657.8751,0.117572
659.7388,0.105184
661.6025,0.094661
663.4661,0.088433
665.3298,0.085909
667.1935,0.083551
669.0571,0.081411
670.9208,0.080978
672.7845,0.081774
674.6481,0.082080
676.5118,0.081247
678.3755,0.080011
680.2392,0.080625
682.1028,0.082263
683.9665,0.082514
685.8302,0.080879
687.6938,0.080423
689.5575,0.081435
691.4212,0.083107
693.2848,0.084536
695.1485,0.085020
697.0122,0.084864
698.8758,0.085663
700.7395,0.086522
702.6032,0.086401
704.4669,0.085614
706.3305,0.084238
708.1942,0.081480
710.0579,0.078385
711.9215,0.075060
713.7852,0.072186
715.6489,0.069123
717.5125,0.067077
719.3762,0.065740
721.2399,0.062989
723.1035,0.059816
724.9672,0.058359
726.8309,0.056836
728.6945,0.054677
730.5582,0.053506
732.4219,0.052641
734.2856,0.051466
736.1492,0.050458
738.0129,0.049940
739.8766,0.050626
741.7402,0.051598
743.6039,0.052450
745.4676,0.052821
747.3312,0.053052
749.1949,0.053412
751.0586,0.053344
752.9222,0.053186
754.7859,0.052944
756.6496,0.052899
758.5132,0.053441
760.3769,0.053183
762.2406,0.052118
764.1043,0.052002
765.9679,0.052917
767.8316,0.053851
769.6953,0.054260
771.5589,0.054081
773.4226,0.054173
775.2863,0.054921
777.1499,0.055878
779.0136,0.055974
780.8773,0.055925
782.7409,0.056192
784.6046,0.056831
786.4683,0.057765
788.3320,0.059345
790.1956,0.060591
792.0593,0.061665
793.9230,0.062799
795.7866,0.064021
797.6503,0.065349
799.5140,0.066651
801.3776,0.067450
803.2413,0.068231
805.1050,0.069035
806.9686,0.069427
808.8323,0.069865
810.6960,0.069862
812.5596,0.068978
814.4233,0.067993
816.2870,0.067770
818.1507,0.068314
820.0143,0.069245
821.8780,0.070677
823.7417,0.072393
825.6053,0.075075
827.4690,0.079419
829.3327,0.084523
831.1963,0.087849
833.0600,0.089763
834.9237,0.093270
836.7873,0.098716
838.6510,0.102706
840.5147,0.103046
842.3784,0.101167
844.2420,0.098192
846.1057,0.092848
847.9694,0.082413
849.8330,0.066252
851.6967,0.049469
853.5604,0.037405
855.4240,0.031098
857.2877,0.028439
859.1514,0.027175
861.0150,0.026553
862.8787,0.026611
864.7424,0.027123
866.6060,0.027841
868.4697,0.028848
870.3334,0.030448
872.1971,0.032278
874.0607,0.034256
875.9244,0.036960
877.7881,0.040334
879.6517,0.044517
881.5154,0.049086
883.3791,0.053142
885.2427,0.054594
887.1064,0.051677
888.9701,0.045556
890.8337,0.039276
892.6974,0.034530
894.5611,0.031695
896.4247,0.030647
898.2884,0.030739
900.1521,0.031348
902.0158,0.032088
903.8794,0.033109
905.7431,0.034677
907.6068,0.036665
909.4704,0.039058
911.3341,0.041792
913.1978,0.044810
915.0614,0.046673
916.9251,0.044766
918.7888,0.039870
920.6524,0.036041
922.5161,0.034773
924.3798,0.035046
926.2435,0.035913
928.1071,0.036727
929.9708,0.037599
931.8345,0.038921
933.6981,0.040700
935.5618,0.042994
937.4255,0.045647
939.2891,0.048507
941.1528,0.051115
943.0165,0.052447
944.8801,0.051541
946.7438,0.048297
948.6075,0.044401
950.4711,0.041838
952.3348,0.040955
954.1985,0.041084
956.0622,0.041721
957.9258,0.042596
959.7895,0.043518
961.6532,0.044650
963.5168,0.046165
965.3805,0.048055
967.2442,0.050146
969.1078,0.052471
970.9715,0.055101
972.8352,0.058218
974.6988,0.062602
976.5625,0.069316
978.4262,0.079498
980.2899,0.092849
982.1535,0.101997
984.0172,0.099072
985.8809,0.093850
987.7445,0.095746
989.6082,0.097302
991.4719,0.088410
993.3355,0.071100
995.1992,0.055205
997.0629,0.045766
998.9265,0.041385
1000.7902,0.039663
1002.6539,0.039199
1004.5175,0.039245
1006.3812,0.039641
1008.2449,0.040269
1010.1086,0.040754
1011.9722,0.041269
1013.8359,0.042060
1015.6996,0.043337
1017.5632,0.045041
1019.4269,0.046736
1021.2906,0.048262
1023.1542,0.049699
1025.0179,0.051179
1026.8816,0.052524
1028.7452,0.053731
1030.6089,0.054988
1032.4726,0.056485
1034.3362,0.058340
1036.1999,0.060226
1038.0636,0.062129
1039.9273,0.064152
1041.7909,0.066149
1043.6546,0.068381
1045.5183,0.070905
1047.3819,0.073013
1049.2456,0.073911
1051.1093,0.073074
1052.9729,0.071204
1054.8366,0.069886
1056.7003,0.069990
1058.5639,0.070941
1060.4276,0.070319
1062.2913,0.066610
1064.1550,0.061482
1066.0186,0.057611
1067.8823,0.056058
1069.7460,0.055971
1071.6096,0.056413
1073.4733,0.057121
1075.3370,0.058113
1077.2006,0.059250
1079.0643,0.060599
1080.9280,0.062160
1082.7916,0.063711
1084.6553,0.065327
1086.5190,0.067166
1088.3826,0.069006
1090.2463,0.070713
1092.1100,0.072645
1093.9737,0.075010
1095.8373,0.077819
1097.7010,0.080987
1099.5647,0.084169
1101.4283,0.087290
1103.2920,0.090215
1105.1557,0.092526
1107.0193,0.093344
1108.8830,0.092095
1110.7467,0.089129
1112.6103,0.085222
1114.4740,0.081045
1116.3377,0.077290
1118.2014,0.074306
1120.0650,0.072119
1121.9287,0.070944
1123.7924,0.070562
1125.6560,0.070385
1127.5197,0.070046
1129.3834,0.069440
1131.2470,0.068448
1133.1107,0.067191
1134.9744,0.066034
1136.8380,0.065324
1138.7017,0.065145
1140.5654,0.065423
1142.4290,0.066233
1144.2927,0.067629
1146.1564,0.069687
1148.0201,0.072629
1149.8837,0.076336
1151.7474,0.080179
1153.6111,0.083582
1155.4747,0.085534
1157.3384,0.083300
1159.2021,0.075701
1161.0657,0.065872
1162.9294,0.058007
1164.7931,0.053950
1166.6567,0.052874
1168.5204,0.053361
1170.3841,0.054490
1172.2477,0.055565
1174.1114,0.055925
1175.9751,0.055448
1177.8388,0.054448
1179.7024,0.053561
1181.5661,0.053238
1183.4298,0.053332
1185.2934,0.053622
1187.1571,0.053917
1189.0208,0.053976
1190.8844,0.053937
1192.7481,0.053833
1194.6118,0.053761
1196.4754,0.053886
1198.3391,0.054145
1200.2028,0.054610
1202.0665,0.055088
1203.9301,0.055292
1205.7938,0.055237
1207.6575,0.055186
1209.5211,0.055421
1211.3848,0.055819
1213.2485,0.056316
1215.1121,0.056929
1216.9758,0.057565
1218.8395,0.058108
1220.7031,0.058481
1222.5668,0.058891
1224.4305,0.059481
1226.2941,0.060133
1228.1578,0.060705
1230.0215,0.061324
1231.8852,0.061972
1233.7488,0.062586
1235.6125,0.063333
1237.4762,0.064239
1239.3398,0.065206
1241.2035,0.066178
1243.0672,0.067296
1244.9308,0.068660
1246.7945,0.070281
1248.6582,0.072076
1250.5218,0.074196
1252.3855,0.076856
1254.2492,0.079969
1256.1129,0.083312
1257.9765,0.086728
1259.8402,0.089431
1261.7039,0.089604
1263.5675,0.086338
1265.4312,0.080502
1267.2949,0.074135
1269.1585,0.069574
1271.0222,0.067857
1272.8859,0.068287
1274.7495,0.069867
1276.6132,0.072343
1278.4769,0.075438
1280.3405,0.078917
1282.2042,0.082817
1284.0679,0.087209
1285.9316,0.092375
1287.7952,0.098798
1289.6589,0.105996
1291.5226,0.112441
1293.3862,0.114535
1295.2499,0.109305
1297.1136,0.099435
1298.9772,0.091139
1300.8409,0.088068
1302.7046,0.089548
1304.5682,0.091789
1306.4319,0.090772
1308.2956,0.085232
1310.1592,0.077382
1312.0229,0.071076
1313.8866,0.068605
1315.7503,0.069682
1317.6139,0.072821
1319.4776,0.076995
1321.3413,0.081525
1323.2049,0.086495
1325.0686,0.092447
1326.9323,0.099306
1328.7959,0.106510
1330.6596,0.112213
1332.5233,0.113314
1334.3869,0.107984
1336.2506,0.099075
1338.1143,0.092308
1339.9780,0.089898
1341.8416,0.087675
1343.7053,0.083435
1345.5690,0.078755
1347.4326,0.075954
1349.2963,0.075911
1351.1600,0.077654
1353.0236,0.080412
1354.8873,0.084060
1356.7510,0.087630
1358.6146,0.090607
1360.4783,0.093846
1362.3420,0.099035
1364.2056,0.104181
1366.0693,0.107709
1367.9330,0.113057
1369.7967,0.119955
1371.6603,0.126057
1373.5240,0.134080
1375.3877,0.143291
1377.2513,0.149821
1379.1150,0.156907
1380.9787,0.165271
1382.8423,0.172879
1384.7060,0.178366
1386.5697,0.180410
1388.4333,0.176168
1390.2970,0.166344
1392.1607,0.155920
1394.0244,0.148770
1395.8880,0.147988
1397.7517,0.151189
1399.6154,0.153855
1401.4790,0.149727
1403.3427,0.137639
1405.2064,0.117248
1407.0700,0.099373
1408.9337,0.094100
1410.7974,0.096274
1412.6610,0.097462
1414.5247,0.092319
1416.3884,0.082696
1418.2520,0.071849
1420.1157,0.060933
1421.9794,0.055265
1423.8431,0.051886
1425.7067,0.047919
1427.5704,0.045423
1429.4341,0.043928
1431.2977,0.041963
1433.1614,0.040349
1435.0251,0.041085
1436.8887,0.045322
1438.7524,0.049320
1440.6161,0.052536
1442.4797,0.057830
1444.3434,0.063813
1446.2071,0.069148
1448.0707,0.071734
1449.9344,0.068448
1451.7981,0.063171
1453.6618,0.059514
1455.5254,0.060025
1457.3891,0.068551
1459.2528,0.075637
1461.1164,0.077317
1462.9801,0.080206
1464.8438,0.082773
1466.7074,0.079570
1468.5711,0.073319
1470.4348,0.068993
1472.2984,0.068658
1474.1621,0.070781
1476.0258,0.071913
1477.8895,0.072626
1479.7531,0.073948
1481.6168,0.076763
1483.4805,0.079538
1485.3441,0.081925
1487.2078,0.085764
1489.0715,0.092046
1490.9351,0.098299
1492.7988,0.100069
1494.6625,0.101998
1496.5261,0.107916
1498.3898,0.114411
1500.2535,0.117194
1502.1171,0.117699
1503.9808,0.117134
1505.8445,0.117862
1507.7082,0.118660
1509.5718,0.111999
1511.4355,0.104592
1513.2992,0.096550
1515.1628,0.089524
1517.0265,0.082784
1518.8902,0.077115
1520.7538,0.074621
1522.6175,0.071814
1524.4812,0.070295
1526.3448,0.070380
1528.2085,0.070358
1530.0722,0.070071
1531.9359,0.071252
1533.7995,0.074277
1535.6632,0.075024
1537.5269,0.075204
1539.3905,0.080097
1541.2542,0.089170
1543.1179,0.091982
1544.9815,0.095342
1546.8452,0.098467
1548.7089,0.101748
1550.5725,0.107242
1552.4362,0.111555
1554.2999,0.115063
1556.1635,0.118891
1558.0272,0.125933
1559.8909,0.142704
1561.7546,0.140065
1563.6182,0.137803
1565.4819,0.138946
1567.3456,0.139506
1569.2092,0.140360
1571.0729,0.139916
1572.9366,0.136261
1574.8002,0.132868
1576.6639,0.129141
1578.5276,0.124019
1580.3912,0.119074
1582.2549,0.113771
1584.1186,0.108617
1585.9822,0.104031
1587.8459,0.100052
1589.7096,0.096952
1591.5733,0.094157
1593.4369,0.091583
1595.3006,0.089612
1597.1643,0.087795
1599.0279,0.085925
1600.8916,0.084404
1602.7553,0.083074
1604.6189,0.082045
1606.4826,0.081582
1608.3463,0.081526
1610.2099,0.081716
1612.0736,0.081886
1613.9373,0.082180
1615.8010,0.083646
1617.6646,0.085906
1619.5283,0.086348
1621.3920,0.086993
1623.2556,0.089259
1625.1193,0.091344
1626.9830,0.091751
1628.8466,0.090817
1630.7103,0.087596
1632.5740,0.082546
1634.4376,0.076011
1636.3013,0.066229
1638.1650,0.059486
1640.0286,0.056243
1641.8923,0.053068
1643.7560,0.050853
1645.6197,0.050078
1647.4833,0.050611
1649.3470,0.050928
1651.2107,0.050686
1653.0743,0.050572
1654.9380,0.050083
1656.8017,0.049503
1658.6653,0.048940
1660.5290,0.048204
1662.3927,0.047408
1664.2563,0.046064
1666.1200,0.044478
1667.9837,0.042693
1669.8474,0.039902
1671.7110,0.037275
1673.5747,0.036080
1675.4384,0.035273
1677.3020,0.034571
1679.1657,0.034605
1681.0294,0.035202
1682.8930,0.036050
1684.7567,0.036975
1686.6204,0.036922
1688.4840,0.036571
1690.3477,0.035739
1692.2114,0.034264
1694.0750,0.032874
1695.9387,0.031121
1697.8024,0.028989
1699.6661,0.027480
1701.5297,0.024840
1703.3934,0.023032
1705.2571,0.021118
1707.1207,0.018328
1708.9844,0.016388
1710.8481,0.014967
1712.7117,0.013812
1714.5754,0.012861
1716.4391,0.011880
1718.3027,0.011281
1720.1664,0.011205
1722.0301,0.011118
1723.8937,0.010583
1725.7574,0.009772
1727.6211,0.009192
1729.4848,0.008748
1731.3484,0.008202
1733.2121,0.007690
1735.0758,0.007085
1736.9394,0.006876
1738.8031,0.006892
1740.6668,0.006768
1742.5304,0.006733
1744.3941,0.006674
1746.2578,0.006405
1748.1214,0.006138
1749.9851,0.005993
1751.8488,0.005836
1753.7125,0.005725
1755.5761,0.005826
1757.4398,0.005796
1759.3035,0.005630
1761.1671,0.005554
1763.0308,0.005541
1764.8945,0.005600
1766.7581,0.005662
1768.6218,0.005503
1770.4855,0.005390
1772.3491,0.005471
1774.2128,0.005375
1776.0765,0.005363
1777.9401,0.005531
1779.8038,0.005683
1781.6675,0.005693
1783.5312,0.005659
1785.3948,0.005566
1787.2585,0.005509
1789.1222,0.005627
1790.9858,0.005636
1792.8495,0.005390
1794.7132,0.005178
1796.5768,0.005316
1798.4405,0.005443
1800.3042,0.005461
1802.1678,0.005562
1804.0315,0.005658
1805.8952,0.005763
1807.7589,0.005775
1809.6225,0.005593
1811.4862,0.005533
1813.3499,0.005500
1815.2135,0.005350
1817.0772,0.005401
1818.9409,0.005696
1820.8045,0.005916
1822.6682,0.005965
1824.5319,0.005816
1826.3955,0.005650
1828.2592,0.005669
1830.1229,0.005845
1831.9865,0.005844
1833.8502,0.005771
1835.7139,0.005723
1837.5776,0.005647
1839.4412,0.005582
1841.3049,0.005368
1843.1686,0.005188
1845.0322,0.005288
1846.8959,0.005356
1848.7596,0.005335
1850.6232,0.005423
1852.4869,0.005701
1854.3506,0.005798
1856.2142,0.005733
1858.0779,0.005602
1859.9416,0.005384
1861.8052,0.005283
1863.6689,0.005285
1865.5326,0.005436
1867.3963,0.005671
1869.2599,0.005457
1871.1236,0.005364
1872.9873,0.005652
1874.8509,0.005943
1876.7146,0.006066
1878.5783,0.005895
1880.4419,0.005932
1882.3056,0.005971
1884.1693,0.005663
1886.0329,0.005704
1887.8966,0.005841
1889.7603,0.005640
1891.6240,0.005306
1893.4876,0.005274
1895.3513,0.005530
1897.2150,0.005628
1899.0786,0.005639
1900.9423,0.005943
1902.8060,0.006072
1904.6696,0.005614
1906.5333,0.005375
1908.3970,0.005747
1910.2606,0.006037
1912.1243,0.006015
1913.9880,0.005874
1915.8516,0.006171
1917.7153,0.006282
1919.5790,0.005569
1921.4427,0.005199
1923.3063,0.005230
1925.1700,0.005288
1927.0337,0.005660
1928.8973,0.005731
1930.7610,0.005509
1932.6247,0.005788
1934.4883,0.006373
1936.3520,0.006451
1938.2157,0.005924
1940.0793,0.005272
1941.9430,0.005291
1943.8067,0.005635
1945.6704,0.005553
1947.5340,0.005274
1949.3977,0.004987
1951.2614,0.004471
1953.1250,0.004543
1954.9887,0.005033
1956.8524,0.004688
1958.7160,0.004180
1960.5797,0.004069
1962.4434,0.003229
1964.3070,0.002684
1966.1707,0.003235
1968.0344,0.002882
1969.8980,0.002083
1971.7617,0.002666
1973.6254,0.002808
1975.4891,0.002486
1977.3527,0.002978
1979.2164,0.003104
1981.0801,0.002673
1982.9437,0.002803
1984.8074,0.002902
1986.6711,0.003583
1988.5347,0.004423
1990.3984,0.004964
1992.2621,0.005131
1994.1257,0.004703
1995.9894,0.004592
1997.8531,0.004419
1999.7167,0.004273
2001.5804,0.004754
2003.4441,0.004886
2005.3078,0.004701
2007.1714,0.004005
2009.0351,0.003186
2010.8988,0.003602
2012.7624,0.004388
2014.6261,0.004513
2016.4898,0.004094
2018.3534,0.004108
2020.2171,0.004002
2022.0808,0.003120
2023.9444,0.002892
2025.8081,0.003146
2027.6718,0.003801
2029.5355,0.004263
2031.3991,0.004968
2033.2628,0.005704
2035.1265,0.005251
2036.9901,0.004925
2038.8538,0.005157
2040.7175,0.005754
2042.5811,0.007197
2044.4448,0.007773
2046.3085,0.007112
2048.1721,0.006899
2050.0358,0.007625
2051.8995,0.008049
2053.7631,0.007405
2055.6268,0.007466
2057.4905,0.007892
2059.3542,0.007033
2061.2178,0.006646
2063.0815,0.007613
2064.9452,0.008535
2066.8088,0.008626
2068.6725,0.007771
2070.5362,0.007894
2072.3998,0.008863
2074.2635,0.008803
2076.1272,0.008128
2077.9908,0.008086
2079.8545,0.008747
2081.7182,0.009192
2083.5819,0.009572
2085.4455,0.009642
2087.3092,0.009909
2089.1729,0.009827
2091.0365,0.009905
2092.9002,0.010470
2094.7639,0.009991
2096.6275,0.009712
2098.4912,0.010364
2100.3549,0.010495
2102.2185,0.010412
2104.0822,0.010427
2105.9459,0.010625
2107.8095,0.011009
2109.6732,0.011303
2111.5369,0.011128
2113.4006,0.010917
2115.2642,0.010520
2117.1279,0.010482
2118.9916,0.011109
2120.8552,0.011622
2122.7189,0.011936
2124.5826,0.011229
2126.4462,0.010580
2128.3099,0.010631
2130.1736,0.010724
2132.0372,0.010453
2133.9009,0.010355
2135.7646,0.011363
2137.6282,0.011648
2139.4919,0.011347
2141.3556,0.011264
2143.2193,0.011072
2145.0829,0.011437
2146.9466,0.011297
2148.8103,0.011127
2150.6739,0.011069
2152.5376,0.009843
2154.4013,0.008347
2156.2649,0.007297
2158.1286,0.007613
2159.9923,0.010067
2161.8559,0.012087
2163.7196,0.012356
2165.5833,0.012786
2167.4470,0.011975
2169.3106,0.012440
2171.1743,0.013084
2173.0380,0.012873
2174.9016,0.012945
2176.7653,0.012825
2178.6290,0.013348
2180.4926,0.014368
2182.3563,0.014902
2184.2200,0.014980
2186.0836,0.015792
2187.9473,0.016880
2189.8110,0.017169
2191.6746,0.017877
2193.5383,0.018690
2195.4020,0.018360
2197.2657,0.017594
2199.1293,0.017616
2200.9930,0.018177
2202.8567,0.018586
2204.7203,0.018762
2206.5840,0.018762
2208.4477,0.019536
2210.3113,0.019350
2212.1750,0.018221
2214.0387,0.017553
2215.9023,0.017477
2217.7660,0.017060
2219.6297,0.016256
2221.4934,0.016475
2223.3570,0.017034
2225.2207,0.016536
2227.0844,0.016237
2228.9480,0.016397
2230.8117,0.015811
2232.6754,0.016224
2234.5390,0.016563
2236.4027,0.015637
2238.2664,0.015460
2240.1300,0.015938
2241.9937,0.016265
2243.8574,0.016136
2245.7210,0.015656
2247.5847,0.015376
2249.4484,0.015240
2251.3121,0.015214
2253.1757,0.014479
2255.0394,0.014108
2256.9031,0.014851
2258.7667,0.015271
2260.6304,0.015241
2262.4941,0.014878
2264.3577,0.014439
2266.2214,0.014577
2268.0851,0.015098
2269.9487,0.015189
2271.8124,0.014986
2273.6761,0.015073
2275.5397,0.015023
2277.4034,0.015031
2279.2671,0.015531
2281.1308,0.015495
2282.9944,0.015142
2284.8581,0.015521
2286.7218,0.015640
2288.5854,0.015287
2290.4491,0.015009
2292.3128,0.014826
2294.1764,0.015040
2296.0401,0.015549
2297.9038,0.015545
2299.7674,0.015248
2301.6311,0.015115
2303.4948,0.015132
2305.3585,0.015516
2307.2221,0.015953
2309.0858,0.016172
2310.9495,0.016159
2312.8131,0.016141
2314.6768,0.016044
2316.5405,0.016031
2318.4041,0.016049
2320.2678,0.016154
2322.1315,0.016295
2323.9951,0.016365
2325.8588,0.016297
2327.7225,0.016078
2329.5861,0.015800
2331.4498,0.015561
2333.3135,0.015391
2335.1772,0.015514
2337.0408,0.015727
2338.9045,0.015809
2340.7682,0.015991
2342.6318,0.016349
2344.4955,0.016601
2346.3592,0.016779
2348.2228,0.016492
2350.0865,0.015997
2351.9502,0.016019
2353.8138,0.016116
2355.6775,0.016058
2357.5412,0.016155
2359.4049,0.016241
2361.2685,0.016207
2363.1322,0.016138
2364.9959,0.016095
2366.8595,0.015949
2368.7232,0.016770
2370.5869,0.017609
2372.4505,0.017467
2374.3142,0.017470
2376.1779,0.018016
2378.0415,0.018253
2379.9052,0.018270
2381.7689,0.018330
2383.6325,0.018518
2385.4962,0.018718
2387.3599,0.018777
2389.2236,0.018988
2391.0872,0.019262
2392.9509,0.019324
2394.8146,0.019375
2396.6782,0.019627
2398.5419,0.019844
2400.4056,0.020062
2402.2692,0.020000
2404.1329,0.019770
2405.9966,0.020064
2407.8602,0.020570
2409.7239,0.021000
2411.5876,0.021148
2413.4512,0.021069
2415.3149,0.021213
2417.1786,0.021520
2419.0423,0.021601
2420.9059,0.021643
2422.7696,0.021760
2424.6333,0.021829
2426.4969,0.021783
2428.3606,0.021931
2430.2243,0.021978
2432.0879,0.022238
2433.9516,0.022450
2435.8153,0.022458
2437.6789,0.022875
2439.5426,0.023008
2441.4063,0.022945
2443.2700,0.023364
2445.1336,0.023857
2446.9973,0.024064
2448.8610,0.024007
2450.7246,0.023979
2452.5883,0.024328
2454.4520,0.024777
2456.3156,0.024947
2458.1793,0.025153
2460.0430,0.024772
2461.9066,0.024444
2463.7703,0.024545
2465.6340,0.025068
2467.4976,0.025398
2469.3613,0.025554
2471.2250,0.025819
2473.0887,0.025837
2474.9523,0.026187
2476.8160,0.026715
2478.6797,0.026832
2480.5433,0.026944
2482.4070,0.026998
2484.2707,0.026838
2486.1343,0.026918
2487.9980,0.027331
2489.8617,0.027596
2491.7253,0.027561
2493.5890,0.027716
2495.4527,0.027812
2497.3164,0.027934
2499.1800,0.027603
2501.0437,0.027192
2502.9074,0.027529
2504.7710,0.027812
2506.6347,0.027903
2508.4984,0.027773
2510.3620,0.027597
2512.2257,0.028050
2514.0894,0.028470
2515.9530,0.027958
2517.8167,0.027741
2519.6804,0.028262
2521.5440,0.028700
2523.4077,0.028694
2525.2714,0.028776
2527.1351,0.028800
