Wavenumber,Intensity
650.4205,0.164628
652.2841,0.165272
654.1478,0.168965
656.0115,0.172272
657.8751,0.173645
659.7388,0.171162
661.6025,0.173171
663.4661,0.177327
665.3298,0.179372
667.1935,0.182005
669.0571,0.183654
670.9208,0.177222
672.7845,0.171428
674.6481,0.165829
676.5118,0.162267
678.3755,0.159989
680.2392,0.157204
682.1028,0.154664
683.9665,0.151967
685.8302,0.147518
687.6938,0.145814
689.5575,0.144865
691.4212,0.143839
693.2848,0.142294
695.1485,0.140101
697.0122,0.137552
698.8758,0.136513
700.7395,0.135923
702.6032,0.134333
704.4669,0.132552
706.3305,0.131021
708.1942,0.128456
710.0579,0.124794
711.9215,0.121588
713.7852,0.118750
715.6489,0.115771
717.5125,0.113121
719.3762,0.110853
721.2399,0.108920
723.1035,0.107348
724.9672,0.105682
726.8309,0.103041
728.6945,0.101321
730.5582,0.099867
732.4219,0.098232
734.2856,0.096763
736.1492,0.095552
738.0129,0.094993
739.8766,0.095425
741.7402,0.095972
743.6039,0.096580
745.4676,0.096349
747.3312,0.094763
749.1949,0.093576
751.0586,0.092947
752.9222,0.092050
754.7859,0.091064
756.6496,0.089626
758.5132,0.088631
760.3769,0.087954
762.2406,0.087440
764.1043,0.087353
765.9679,0.087289
767.8316,0.086650
769.6953,0.086118
771.5589,0.086311
773.4226,0.086982
775.2863,0.087433
777.1499,0.087859
779.0136,0.088026
780.8773,0.088009
782.7409,0.088247
784.6046,0.088346
786.4683,0.088358
788.3320,0.088790
790.1956,0.089101
792.0593,0.089141
793.9230,0.089223
795.7866,0.089433
797.6503,0.089566
799.5140,0.090101
801.3776,0.090220
803.2413,0.089841
805.1050,0.089522
806.9686,0.089265
808.8323,0.088574
810.6960,0.087728
812.5596,0.086089
814.4233,0.084200
816.2870,0.082753
818.1507,0.081542
820.0143,0.080732
821.8780,0.079994
823.7417,0.079250
825.6053,0.079000
827.4690,0.079559
829.3327,0.080139
831.1963,0.078794
833.0600,0.075475
834.9237,0.072197
836.7873,0.070417
838.6510,0.069836
840.5147,0.069531
842.3784,0.069472
844.2420,0.069678
846.1057,0.069941
847.9694,0.070235
849.8330,0.070528
851.6967,0.070480
853.5604,0.070271
855.4240,0.070457
857.2877,0.070711
859.1514,0.070722
861.0150,0.070787
862.8787,0.070950
864.7424,0.071094
866.6060,0.071428
868.4697,0.071877
870.3334,0.072047
872.1971,0.072203
874.0607,0.072636
875.9244,0.072817
877.7881,0.072830
879.6517,0.072974
881.5154,0.072938
883.3791,0.072864
885.2427,0.072998
887.1064,0.073161
888.9701,0.073466
890.8337,0.073859
892.6974,0.074266
894.5611,0.075269
896.4247,0.076479
898.2884,0.077551
900.1521,0.078833
902.0158,0.080351
903.8794,0.081911
905.7431,0.083653
907.6068,0.085701
909.4704,0.088059
911.3341,0.090793
913.1978,0.093589
915.0614,0.095378
916.9251,0.094156
918.7888,0.090252
920.6524,0.086917
922.5161,0.085565
924.3798,0.085559
926.2435,0.085934
928.1071,0.086123
929.9708,0.086363
931.8345,0.086986
933.6981,0.087901
935.5618,0.088705
937.4255,0.089378
939.2891,0.090032
941.1528,0.090879
943.0165,0.091865
944.8801,0.092852
946.7438,0.093862
948.6075,0.094974
950.4711,0.096228
952.3348,0.097602
954.1985,0.099035
956.0622,0.100479
957.9258,0.102076
959.7895,0.103886
961.6532,0.105628
963.5168,0.107371
965.3805,0.109251
967.2442,0.111192
969.1078,0.113467
970.9715,0.115901
972.8352,0.118335
974.6988,0.121176
976.5625,0.125146
978.4262,0.131146
980.2899,0.138937
982.1535,0.142494
984.0172,0.135317
985.8809,0.125693
987.7445,0.122469
989.6082,0.123971
991.4719,0.126664
993.3355,0.129534
995.1992,0.132668
997.0629,0.135906
998.9265,0.139249
1000.7902,0.142868
1002.6539,0.146538
1004.5175,0.150382
1006.3812,0.154439
1008.2449,0.157860
1010.1086,0.160112
1011.9722,0.161484
1013.8359,0.162042
1015.6996,0.162043
1017.5632,0.161254
1019.4269,0.159739
1021.2906,0.157674
1023.1542,0.155434
1025.0179,0.153185
1026.8816,0.151168
1028.7452,0.149618
1030.6089,0.148177
1032.4726,0.146726
1034.3362,0.145495
1036.1999,0.144507
1038.0636,0.143689
1039.9273,0.142934
1041.7909,0.142303
1043.6546,0.141558
1045.5183,0.140485
1047.3819,0.138594
1049.2456,0.135433
1051.1093,0.130993
1052.9729,0.126220
1054.8366,0.122240
1056.7003,0.119806
1058.5639,0.118771
1060.4276,0.118503
1062.2913,0.118676
1064.1550,0.118876
1066.0186,0.119119
1067.8823,0.119702
1069.7460,0.120493
1071.6096,0.121415
1073.4733,0.122404
1075.3370,0.123582
1077.2006,0.124840
1079.0643,0.125714
1080.9280,0.126173
1082.7916,0.126380
1084.6553,0.126197
1086.5190,0.125839
1088.3826,0.125612
1090.2463,0.125569
1092.1100,0.125857
1093.9737,0.126650
1095.8373,0.127730
1097.7010,0.128728
1099.5647,0.129697
1101.4283,0.130685
1103.2920,0.131274
1105.1557,0.131006
1107.0193,0.129573
1108.8830,0.126771
1110.7467,0.122611
1112.6103,0.117834
1114.4740,0.113170
1116.3377,0.108923
1118.2014,0.105377
1120.0650,0.102441
1121.9287,0.100195
1123.7924,0.098759
1125.6560,0.097581
1127.5197,0.096281
1129.3834,0.095092
1131.2470,0.093997
1133.1107,0.092833
1134.9744,0.091839
1136.8380,0.091088
1138.7017,0.090456
1140.5654,0.090135
1142.4290,0.090044
1144.2927,0.089971
1146.1564,0.089946
1148.0201,0.090002
1149.8837,0.090063
1151.7474,0.090398
1153.6111,0.090921
1155.4747,0.091416
1157.3384,0.091781
1159.2021,0.091942
1161.0657,0.091962
1162.9294,0.091986
1164.7931,0.092134
1166.6567,0.092312
1168.5204,0.092503
1170.3841,0.092720
1172.2477,0.092769
1174.1114,0.092308
1175.9751,0.091045
1177.8388,0.089468
1179.7024,0.088436
1181.5661,0.088138
1183.4298,0.088254
1185.2934,0.088595
1187.1571,0.089061
1189.0208,0.089589
1190.8844,0.089971
1192.7481,0.090147
1194.6118,0.090293
1196.4754,0.090515
1198.3391,0.090804
1200.2028,0.090979
1202.0665,0.090852
1203.9301,0.090413
1205.7938,0.089803
1207.6575,0.089326
1209.5211,0.089124
1211.3848,0.089305
1213.2485,0.089696
1215.1121,0.090172
1216.9758,0.090919
1218.8395,0.092110
1220.7031,0.093376
1222.5668,0.094377
1224.4305,0.095343
1226.2941,0.096343
1228.1578,0.097037
1230.0215,0.097380
1231.8852,0.097318
1233.7488,0.096981
1235.6125,0.096794
1237.4762,0.096726
1239.3398,0.096560
1241.2035,0.096288
1243.0672,0.095944
1244.9308,0.095423
1246.7945,0.094716
1248.6582,0.094024
1250.5218,0.093410
1252.3855,0.092812
1254.2492,0.092224
1256.1129,0.091698
1257.9765,0.091198
1259.8402,0.090938
1261.7039,0.090707
1263.5675,0.090302
1265.4312,0.090121
1267.2949,0.089948
1269.1585,0.089629
1271.0222,0.089537
1272.8859,0.089397
1274.7495,0.089180
1276.6132,0.089221
1278.4769,0.089507
1280.3405,0.089815
1282.2042,0.089913
1284.0679,0.089802
1285.9316,0.089790
1287.7952,0.090211
1289.6589,0.090860
1291.5226,0.091727
1293.3862,0.093089
1295.2499,0.094847
1297.1136,0.096983
1298.9772,0.099463
1300.8409,0.102310
1302.7046,0.105363
1304.5682,0.107643
1306.4319,0.107619
1308.2956,0.104245
1310.1592,0.098091
1312.0229,0.092161
1313.8866,0.088720
1315.7503,0.087598
1317.6139,0.088146
1319.4776,0.089434
1321.3413,0.090303
1323.2049,0.090997
1325.0686,0.092031
1326.9323,0.093267
1328.7959,0.094433
1330.6596,0.095298
1332.5233,0.095643
1334.3869,0.095316
1336.2506,0.094835
1338.1143,0.094970
1339.9780,0.095739
1341.8416,0.094505
1343.7053,0.092570
1345.5690,0.091794
1347.4326,0.091612
1349.2963,0.091985
1351.1600,0.092754
1353.0236,0.093529
1354.8873,0.094797
1356.7510,0.096169
1358.6146,0.096736
1360.4783,0.097287
1362.3420,0.099957
1364.2056,0.102234
1366.0693,0.102302
1367.9330,0.103992
1369.7967,0.106588
1371.6603,0.108038
1373.5240,0.111753
1375.3877,0.116766
1377.2513,0.118863
1379.1150,0.121367
1380.9787,0.124461
1382.8423,0.127077
1384.7060,0.129163
1386.5697,0.133373
1388.4333,0.138878
1390.2970,0.139982
1392.1607,0.139213
1394.0244,0.139309
1395.8880,0.138937
1397.7517,0.135953
1399.6154,0.132990
1401.4790,0.128832
1403.3427,0.125017
1405.2064,0.121485
1407.0700,0.115537
1408.9337,0.108075
1410.7974,0.101384
1412.6610,0.096525
1414.5247,0.093229
1416.3884,0.091728
1418.2520,0.094059
1420.1157,0.098975
1421.9794,0.098709
1423.8431,0.097804
1425.7067,0.095522
1427.5704,0.092509
1429.4341,0.092133
1431.2977,0.093296
1433.1614,0.093227
1435.0251,0.093954
1436.8887,0.099103
1438.7524,0.101217
1440.6161,0.100010
1442.4797,0.100016
1444.3434,0.100074
1446.2071,0.100331
1448.0707,0.101716
1449.9344,0.101187
1451.7981,0.098391
1453.6618,0.094892
1455.5254,0.092727
1457.3891,0.096638
1459.2528,0.097186
1461.1164,0.092744
1462.9801,0.089798
1464.8438,0.090263
1466.7074,0.089750
1468.5711,0.086667
1470.4348,0.084057
1472.2984,0.085564
1474.1621,0.088236
1476.0258,0.088065
1477.8895,0.087198
1479.7531,0.086546
1481.6168,0.087575
1483.4805,0.088277
1485.3441,0.088348
1487.2078,0.090411
1489.0715,0.096177
1490.9351,0.102199
1492.7988,0.100905
1494.6625,0.099861
1496.5261,0.104392
1498.3898,0.110736
1500.2535,0.112254
1502.1171,0.111022
1503.9808,0.108974
1505.8445,0.111246
1507.7082,0.127772
1509.5718,0.128615
1511.4355,0.125139
1513.2992,0.123753
1515.1628,0.123272
1517.0265,0.125507
1518.8902,0.125385
1520.7538,0.125862
1522.6175,0.129725
1524.4812,0.129062
1526.3448,0.129116
1528.2085,0.129333
1530.0722,0.127378
1531.9359,0.126110
1533.7995,0.128481
1535.6632,0.127500
1537.5269,0.123865
1539.3905,0.124059
1541.2542,0.130833
1543.1179,0.131961
1544.9815,0.131743
1546.8452,0.129379
1548.7089,0.127489
1550.5725,0.127762
1552.4362,0.126917
1554.2999,0.125910
1556.1635,0.123776
1558.0272,0.123953
1559.8909,0.134888
1561.7546,0.131735
1563.6182,0.127803
1565.4819,0.126678
1567.3456,0.125721
1569.2092,0.127021
1571.0729,0.128997
1572.9366,0.126957
1574.8002,0.125981
1576.6639,0.129921
1578.5276,0.131625
1580.3912,0.130120
1582.2549,0.129766
1584.1186,0.130120
1585.9822,0.130494
1587.8459,0.130695
1589.7096,0.130966
1591.5733,0.131220
1593.4369,0.131452
1595.3006,0.131785
1597.1643,0.132143
1599.0279,0.132231
1600.8916,0.132468
1602.7553,0.132800
1604.6189,0.133313
1606.4826,0.133879
1608.3463,0.135322
1610.2099,0.136483
1612.0736,0.136394
1613.9373,0.135140
1615.8010,0.134973
1617.6646,0.136772
1619.5283,0.135194
1621.3920,0.132191
1623.2556,0.131144
1625.1193,0.130388
1626.9830,0.128320
1628.8466,0.125435
1630.7103,0.121595
1632.5740,0.116863
1634.4376,0.112354
1636.3013,0.110474
1638.1650,0.110024
1640.0286,0.107905
1641.8923,0.105156
1643.7560,0.102627
1645.6197,0.101502
1647.4833,0.102901
1649.3470,0.101605
1651.2107,0.098062
1653.0743,0.097301
1654.9380,0.100360
1656.8017,0.097923
1658.6653,0.094687
1660.5290,0.091643
1662.3927,0.089292
1664.2563,0.086617
1666.1200,0.083067
1667.9837,0.079701
1669.8474,0.077103
1671.7110,0.075326
1673.5747,0.073173
1675.4384,0.072022
1677.3020,0.070814
1679.1657,0.069178
1681.0294,0.067529
1682.8930,0.065868
1684.7567,0.066104
1686.6204,0.064731
1688.4840,0.062139
1690.3477,0.058715
1692.2114,0.054961
1694.0750,0.051089
1695.9387,0.047419
1697.8024,0.043867
1699.6661,0.041428
1701.5297,0.037527
1703.3934,0.034192
1705.2571,0.031204
1707.1207,0.027573
1708.9844,0.024913
1710.8481,0.022841
1712.7117,0.021066
1714.5754,0.019935
1716.4391,0.019097
1718.3027,0.018897
1720.1664,0.017832
1722.0301,0.016708
1723.8937,0.015878
1725.7574,0.014961
1727.6211,0.014084
1729.4848,0.013528
1731.3484,0.013222
1733.2121,0.012958
1735.0758,0.013301
1736.9394,0.012326
1738.8031,0.011863
1740.6668,0.011868
1742.5304,0.011931
1744.3941,0.011772
1746.2578,0.011539
1748.1214,0.011756
1749.9851,0.012124
1751.8488,0.012224
1753.7125,0.011591
1755.5761,0.011013
1757.4398,0.011310
1759.3035,0.011338
1761.1671,0.011458
1763.0308,0.011853
1764.8945,0.011480
1766.7581,0.011061
1768.6218,0.011438
1770.4855,0.011625
1772.3491,0.012339
1774.2128,0.012643
1776.0765,0.012298
1777.9401,0.011763
1779.8038,0.011795
1781.6675,0.012081
1783.5312,0.012055
1785.3948,0.012142
1787.2585,0.011959
1789.1222,0.011728
1790.9858,0.011973
1792.8495,0.012572
1794.7132,0.012487
1796.5768,0.012190
1798.4405,0.012004
1800.3042,0.012443
1802.1678,0.012924
1804.0315,0.012752
1805.8952,0.012440
1807.7589,0.012375
1809.6225,0.012398
1811.4862,0.012685
1813.3499,0.012545
1815.2135,0.012052
1817.0772,0.012024
1818.9409,0.012285
1820.8045,0.012402
1822.6682,0.012331
1824.5319,0.012526
1826.3955,0.012768
1828.2592,0.012572
1830.1229,0.013188
1831.9865,0.013313
1833.8502,0.012647
1835.7139,0.012280
1837.5776,0.012521
1839.4412,0.012572
1841.3049,0.012377
1843.1686,0.012504
1845.0322,0.013065
1846.8959,0.013089
1848.7596,0.013048
1850.6232,0.012789
1852.4869,0.012604
1854.3506,0.012565
1856.2142,0.012830
1858.0779,0.013144
1859.9416,0.013239
1861.8052,0.012915
1863.6689,0.012782
1865.5326,0.012885
1867.3963,0.013129
1869.2599,0.013655
1871.1236,0.013435
1872.9873,0.012885
1874.8509,0.012864
1876.7146,0.012970
1878.5783,0.012890
1880.4419,0.012863
1882.3056,0.013100
1884.1693,0.013073
1886.0329,0.012806
1887.8966,0.012825
1889.7603,0.013281
1891.6240,0.013545
1893.4876,0.013527
1895.3513,0.013465
1897.2150,0.013461
1899.0786,0.013118
1900.9423,0.012696
1902.8060,0.012743
1904.6696,0.013077
1906.5333,0.013125
1908.3970,0.013210
1910.2606,0.013180
1912.1243,0.012974
1913.9880,0.012982
1915.8516,0.013128
1917.7153,0.013136
1919.5790,0.013075
1921.4427,0.012995
1923.3063,0.013232
1925.1700,0.013477
1927.0337,0.013016
1928.8973,0.012353
1930.7610,0.012451
1932.6247,0.012816
1934.4883,0.012901
1936.3520,0.012478
1938.2157,0.011517
1940.0793,0.011011
1941.9430,0.012043
1943.8067,0.012685
1945.6704,0.011832
1947.5340,0.010944
1949.3977,0.010778
1951.2614,0.011159
1953.1250,0.011559
1954.9887,0.011454
1956.8524,0.010880
1958.7160,0.009398
1960.5797,0.008917
1962.4434,0.009567
1964.3070,0.009909
1966.1707,0.009563
1968.0344,0.008066
1969.8980,0.007013
1971.7617,0.007889
1973.6254,0.009247
1975.4891,0.008745
1977.3527,0.007975
1979.2164,0.009127
1981.0801,0.009832
1982.9437,0.009834
1984.8074,0.009870
1986.6711,0.010315
1988.5347,0.011152
1990.3984,0.011155
1992.2621,0.010258
1994.1257,0.010076
1995.9894,0.010411
1997.8531,0.010540
1999.7167,0.010065
2001.5804,0.009409
2003.4441,0.009313
2005.3078,0.009303
2007.1714,0.008761
2009.0351,0.008739
2010.8988,0.009125
2012.7624,0.008406
2014.6261,0.007471
2016.4898,0.008024
2018.3534,0.008215
2020.2171,0.007913
2022.0808,0.008491
2023.9444,0.008588
2025.8081,0.007876
2027.6718,0.008299
2029.5355,0.009236
2031.3991,0.009005
2033.2628,0.008148
2035.1265,0.008526
2036.9901,0.009604
2038.8538,0.010172
2040.7175,0.010241
2042.5811,0.010216
2044.4448,0.009937
2046.3085,0.010151
2048.1721,0.011255
2050.0358,0.012841
2051.8995,0.013430
2053.7631,0.012821
2055.6268,0.013308
2057.4905,0.014393
2059.3542,0.014484
2061.2178,0.014666
2063.0815,0.015102
2064.9452,0.015279
2066.8088,0.015324
2068.6725,0.015014
2070.5362,0.014469
2072.3998,0.014816
2074.2635,0.015204
2076.1272,0.014944
2077.9908,0.014997
2079.8545,0.015859
2081.7182,0.016296
2083.5819,0.016126
2085.4455,0.016070
2087.3092,0.016053
2089.1729,0.015767
2091.0365,0.015705
2092.9002,0.015885
2094.7639,0.016018
2096.6275,0.016030
2098.4912,0.016201
2100.3549,0.016404
2102.2185,0.016589
2104.0822,0.016778
2105.9459,0.016833
2107.8095,0.016590
2109.6732,0.016865
2111.5369,0.017096
2113.4006,0.016886
2115.2642,0.016971
2117.1279,0.016975
2118.9916,0.016645
2120.8552,0.016235
2122.7189,0.015502
2124.5826,0.015298
2126.4462,0.015738
2128.3099,0.015665
2130.1736,0.015027
2132.0372,0.014561
2133.9009,0.014412
2135.7646,0.014358
2137.6282,0.014200
2139.4919,0.014179
2141.3556,0.014205
2143.2193,0.013368
2145.0829,0.012134
2146.9466,0.011488
2148.8103,0.009990
2150.6739,0.008851
2152.5376,0.009762
2154.4013,0.010791
2156.2649,0.009291
2158.1286,0.007626
2159.9923,0.007562
2161.8559,0.007948
2163.7196,0.008623
2165.5833,0.009726
2167.4470,0.010183
2169.3106,0.011015
2171.1743,0.011746
2173.0380,0.011335
2174.9016,0.011497
2176.7653,0.012277
2178.6290,0.012123
2180.4926,0.011425
2182.3563,0.010845
2184.2200,0.011405
2186.0836,0.012889
2187.9473,0.013380
2189.8110,0.012937
2191.6746,0.013522
2193.5383,0.014619
2195.4020,0.015075
2197.2657,0.014354
2199.1293,0.013131
2200.9930,0.012953
2202.8567,0.014107
2204.7203,0.014930
2206.5840,0.015399
2208.4477,0.015782
2210.3113,0.015190
2212.1750,0.015105
2214.0387,0.016367
2215.9023,0.016205
2217.7660,0.015545
2219.6297,0.015782
2221.4934,0.016079
2223.3570,0.015599
2225.2207,0.015212
2227.0844,0.015926
2228.9480,0.016609
2230.8117,0.016692
2232.6754,0.017346
2234.5390,0.017810
2236.4027,0.017798
2238.2664,0.017970
2240.1300,0.017641
2241.9937,0.016644
2243.8574,0.016319
2245.7210,0.016926
2247.5847,0.017934
2249.4484,0.018558
2251.3121,0.018444
2253.1757,0.018164
2255.0394,0.018538
2256.9031,0.019006
2258.7667,0.019176
2260.6304,0.018665
2262.4941,0.018106
2264.3577,0.018501
2266.2214,0.019137
2268.0851,0.019252
2269.9487,0.019640
2271.8124,0.020152
2273.6761,0.020093
2275.5397,0.020329
2277.4034,0.020740
2279.2671,0.020762
2281.1308,0.020931
2282.9944,0.021191
2284.8581,0.021354
2286.7218,0.021234
2288.5854,0.021199
2290.4491,0.021423
2292.3128,0.021789
2294.1764,0.021942
2296.0401,0.021915
2297.9038,0.021965
2299.7674,0.022110
2301.6311,0.022211
2303.4948,0.022233
2305.3585,0.022038
2307.2221,0.021975
2309.0858,0.022338
2310.9495,0.022487
2312.8131,0.022069
2314.6768,0.021857
2316.5405,0.021984
2318.4041,0.022322
2320.2678,0.022498
2322.1315,0.022345
2323.9951,0.022464
2325.8588,0.022103
2327.7225,0.021286
2329.5861,0.020933
2331.4498,0.020944
2333.3135,0.020961
2335.1772,0.020946
2337.0408,0.020983
2338.9045,0.021170
2340.7682,0.021511
2342.6318,0.021811
2344.4955,0.022041
2346.3592,0.022257
2348.2228,0.022298
2350.0865,0.021549
2351.9502,0.020679
2353.8138,0.020324
2355.6775,0.020081
2357.5412,0.020050
2359.4049,0.020047
2361.2685,0.019794
2363.1322,0.020061
2364.9959,0.020675
2366.8595,0.021418
2368.7232,0.021370
2370.5869,0.021410
2372.4505,0.022163
2374.3142,0.022541
2376.1779,0.022589
2378.0415,0.022856
2379.9052,0.023165
2381.7689,0.023140
2383.6325,0.023001
2385.4962,0.023137
2387.3599,0.023093
2389.2236,0.022793
2391.0872,0.023000
2392.9509,0.023258
2394.8146,0.023237
2396.6782,0.023362
2398.5419,0.023398
2400.4056,0.023458
2402.2692,0.023523
2404.1329,0.023499
2405.9966,0.023394
2407.8602,0.023597
2409.7239,0.023961
2411.5876,0.024117
2413.4512,0.024190
2415.3149,0.024124
2417.1786,0.024049
2419.0423,0.024218
2420.9059,0.024254
2422.7696,0.024352
2424.6333,0.024355
2426.4969,0.024048
2428.3606,0.023941
2430.2243,0.024290
2432.0879,0.024304
2433.9516,0.024155
2435.8153,0.024355
2437.6789,0.024551
2439.5426,0.024625
2441.4063,0.024571
2443.2700,0.024776
2445.1336,0.025178
2446.9973,0.025086
2448.8610,0.024785
2450.7246,0.024772
2452.5883,0.024971
2454.4520,0.024811
2456.3156,0.024863
2458.1793,0.024874
2460.0430,0.024644
2461.9066,0.025118
2463.7703,0.025431
2465.6340,0.025311
2467.4976,0.025316
2469.3613,0.025284
2471.2250,0.025499
2473.0887,0.025768
2474.9523,0.025662
2476.8160,0.025490
2478.6797,0.025475
2480.5433,0.025258
2482.4070,0.025387
2484.2707,0.025365
2486.1343,0.025272
2487.9980,0.025897
2489.8617,0.026283
2491.7253,0.025981
2493.5890,0.025933
2495.4527,0.026244
2497.3164,0.026339
2499.1800,0.026406
2501.0437,0.026368
2502.9074,0.026329
2504.7710,0.026528
2506.6347,0.026521
2508.4984,0.026653
2510.3620,0.026878
2512.2257,0.026895
2514.0894,0.026982
2515.9530,0.027082
2517.8167,0.027086
2519.6804,0.026913
2521.5440,0.026701
2523.4077,0.027002
2525.2714,0.027530
2527.1351,0.028290
