Wavenumber,Intensity
650.4205,0.154866
652.2841,0.154418
654.1478,0.152197
656.0115,0.147225
657.8751,0.144771
659.7388,0.143835
661.6025,0.143641
663.4661,0.143170
665.3298,0.143769
667.1935,0.144563
669.0571,0.145293
670.9208,0.143358
672.7845,0.144414
674.6481,0.141734
676.5118,0.138668
678.3755,0.135859
680.2392,0.130662
682.1028,0.125124
683.9665,0.120977
685.8302,0.116466
687.6938,0.111528
689.5575,0.106406
691.4212,0.103263
693.2848,0.101382
695.1485,0.099420
697.0122,0.096977
698.8758,0.095661
700.7395,0.094829
702.6032,0.094709
704.4669,0.094234
706.3305,0.092900
708.1942,0.091147
710.0579,0.089088
711.9215,0.086886
713.7852,0.084790
715.6489,0.083831
717.5125,0.082797
719.3762,0.081427
721.2399,0.079663
723.1035,0.078142
724.9672,0.077272
726.8309,0.075244
728.6945,0.072735
730.5582,0.070314
732.4219,0.068183
734.2856,0.066282
736.1492,0.065543
738.0129,0.065181
739.8766,0.065088
741.7402,0.065880
743.6039,0.066757
745.4676,0.067769
747.3312,0.068963
749.1949,0.069213
751.0586,0.069096
752.9222,0.069271
754.7859,0.069577
756.6496,0.069860
758.5132,0.070398
760.3769,0.070798
762.2406,0.072043
764.1043,0.073450
765.9679,0.075350
767.8316,0.078948
769.6953,0.083738
771.5589,0.090324
773.4226,0.098600
775.2863,0.104841
777.1499,0.103598
779.0136,0.093262
780.8773,0.081371
782.7409,0.073865
784.6046,0.070643
786.4683,0.069403
788.3320,0.069487
790.1956,0.070600
792.0593,0.072359
793.9230,0.074212
795.7866,0.076317
797.6503,0.078858
799.5140,0.081691
801.3776,0.085443
803.2413,0.091544
805.1050,0.100927
806.9686,0.112999
808.8323,0.121132
810.6960,0.112333
812.5596,0.089034
814.4233,0.069432
816.2870,0.060024
818.1507,0.056725
820.0143,0.055734
821.8780,0.055838
823.7417,0.056753
825.6053,0.058081
827.4690,0.059730
829.3327,0.061732
831.1963,0.061794
833.0600,0.059866
834.9237,0.058526
836.7873,0.059320
838.6510,0.061972
840.5147,0.065816
842.3784,0.070315
844.2420,0.075100
846.1057,0.078667
847.9694,0.078353
849.8330,0.073592
851.6967,0.067089
853.5604,0.060402
855.4240,0.053907
857.2877,0.048528
859.1514,0.045071
861.0150,0.043338
862.8787,0.042697
864.7424,0.042313
866.6060,0.042177
868.4697,0.042628
870.3334,0.043191
872.1971,0.043627
874.0607,0.044297
875.9244,0.045121
877.7881,0.046017
879.6517,0.046753
881.5154,0.047654
883.3791,0.048770
885.2427,0.049852
887.1064,0.051304
888.9701,0.052983
890.8337,0.054927
892.6974,0.057249
894.5611,0.059351
896.4247,0.060507
898.2884,0.059374
900.1521,0.056353
902.0158,0.053822
903.8794,0.053040
905.7431,0.053471
907.6068,0.054891
909.4704,0.056926
911.3341,0.059037
913.1978,0.061481
915.0614,0.063214
916.9251,0.062296
918.7888,0.059132
920.6524,0.057213
922.5161,0.058672
924.3798,0.061461
926.2435,0.060958
928.1071,0.055482
929.9708,0.049189
931.8345,0.045939
933.6981,0.045350
935.5618,0.045825
937.4255,0.046571
939.2891,0.047233
941.1528,0.047897
943.0165,0.048651
944.8801,0.049406
946.7438,0.050205
948.6075,0.050953
950.4711,0.051771
952.3348,0.052633
954.1985,0.053487
956.0622,0.054304
957.9258,0.055111
959.7895,0.056032
961.6532,0.056879
963.5168,0.057861
965.3805,0.059085
967.2442,0.060418
969.1078,0.061947
970.9715,0.063663
972.8352,0.065482
974.6988,0.068163
976.5625,0.072099
978.4262,0.077911
980.2899,0.085507
982.1535,0.089061
984.0172,0.082043
985.8809,0.071782
987.7445,0.067279
989.6082,0.067591
991.4719,0.069715
993.3355,0.072652
995.1992,0.076258
997.0629,0.079957
998.9265,0.080873
1000.7902,0.076500
1002.6539,0.069498
1004.5175,0.064605
1006.3812,0.062997
1008.2449,0.062965
1010.1086,0.063385
1011.9722,0.063944
1013.8359,0.064599
1015.6996,0.065587
1017.5632,0.066918
1019.4269,0.068564
1021.2906,0.070223
1023.1542,0.071861
1025.0179,0.073524
1026.8816,0.075198
1028.7452,0.076957
1030.6089,0.078784
1032.4726,0.080947
1034.3362,0.083441
1036.1999,0.086186
1038.0636,0.089514
1039.9273,0.093461
1041.7909,0.098115
1043.6546,0.103434
1045.5183,0.109506
1047.3819,0.116401
1049.2456,0.122329
1051.1093,0.122652
1052.9729,0.113147
1054.8366,0.096245
1056.7003,0.080963
1058.5639,0.072657
1060.4276,0.069902
1062.2913,0.069610
1064.1550,0.070374
1066.0186,0.071970
1067.8823,0.074147
1069.7460,0.076672
1071.6096,0.079341
1073.4733,0.082252
1075.3370,0.085805
1077.2006,0.090172
1079.0643,0.095045
1080.9280,0.100336
1082.7916,0.104839
1084.6553,0.106808
1086.5190,0.104897
1088.3826,0.099089
1090.2463,0.093421
1092.1100,0.092055
1093.9737,0.094808
1095.8373,0.099848
1097.7010,0.106195
1099.5647,0.112961
1101.4283,0.118950
1103.2920,0.121803
1105.1557,0.119248
1107.0193,0.112204
1108.8830,0.104030
1110.7467,0.097096
1112.6103,0.091797
1114.4740,0.087910
1116.3377,0.085292
1118.2014,0.083775
1120.0650,0.083457
1121.9287,0.084413
1123.7924,0.086462
1125.6560,0.089217
1127.5197,0.091704
1129.3834,0.092562
1131.2470,0.090480
1133.1107,0.085695
1134.9744,0.080472
1136.8380,0.076798
1138.7017,0.075115
1140.5654,0.075017
1142.4290,0.075903
1144.2927,0.077406
1146.1564,0.079497
1148.0201,0.082110
1149.8837,0.085215
1151.7474,0.088966
1153.6111,0.093386
1155.4747,0.098596
1157.3384,0.104418
1159.2021,0.109701
1161.0657,0.112482
1162.9294,0.111326
1164.7931,0.106347
1166.6567,0.098522
1168.5204,0.089280
1170.3841,0.080847
1172.2477,0.075155
1174.1114,0.072063
1175.9751,0.070087
1177.8388,0.068728
1179.7024,0.068299
1181.5661,0.068825
1183.4298,0.069935
1185.2934,0.071425
1187.1571,0.073011
1189.0208,0.074601
1190.8844,0.076500
1192.7481,0.078893
1194.6118,0.081744
1196.4754,0.085337
1198.3391,0.089915
1200.2028,0.094481
1202.0665,0.095932
1203.9301,0.091096
1205.7938,0.082110
1207.6575,0.074634
1209.5211,0.071214
1211.3848,0.070768
1213.2485,0.071626
1215.1121,0.072865
1216.9758,0.074274
1218.8395,0.075649
1220.7031,0.076832
1222.5668,0.077956
1224.4305,0.079203
1226.2941,0.080448
1228.1578,0.081646
1230.0215,0.082903
1231.8852,0.084126
1233.7488,0.085203
1235.6125,0.086436
1237.4762,0.087858
1239.3398,0.089408
1241.2035,0.091036
1243.0672,0.092878
1244.9308,0.095103
1246.7945,0.097517
1248.6582,0.100138
1250.5218,0.102991
1252.3855,0.105638
1254.2492,0.107210
1256.1129,0.106745
1257.9765,0.104130
1259.8402,0.100786
1261.7039,0.098255
1263.5675,0.097525
1265.4312,0.098673
1267.2949,0.100667
1269.1585,0.102908
1271.0222,0.105678
1272.8859,0.108809
1274.7495,0.112081
1276.6132,0.115555
1278.4769,0.118535
1280.3405,0.119685
1282.2042,0.117504
1284.0679,0.112588
1285.9316,0.107631
1287.7952,0.104695
1289.6589,0.104132
1291.5226,0.105501
1293.3862,0.108326
1295.2499,0.112279
1297.1136,0.116943
1298.9772,0.121981
1300.8409,0.127163
1302.7046,0.132293
1304.5682,0.136393
1306.4319,0.137991
1308.2956,0.136469
1310.1592,0.132507
1312.0229,0.128424
1313.8866,0.125339
1315.7503,0.122408
1317.6139,0.119125
1319.4776,0.115731
1321.3413,0.114035
1323.2049,0.115689
1325.0686,0.120236
1326.9323,0.125917
1328.7959,0.131076
1330.6596,0.133762
1332.5233,0.132259
1334.3869,0.126174
1336.2506,0.116552
1338.1143,0.105049
1339.9780,0.093323
1341.8416,0.083918
1343.7053,0.078936
1345.5690,0.077121
1347.4326,0.077665
1349.2963,0.080148
1351.1600,0.084147
1353.0236,0.089225
1354.8873,0.095395
1356.7510,0.100932
1358.6146,0.103262
1360.4783,0.100815
1362.3420,0.094434
1364.2056,0.087060
1366.0693,0.083795
1367.9330,0.084896
1369.7967,0.087699
1371.6603,0.090261
1373.5240,0.095001
1375.3877,0.100928
1377.2513,0.104277
1379.1150,0.108061
1380.9787,0.112384
1382.8423,0.116131
1384.7060,0.120111
1386.5697,0.126533
1388.4333,0.133844
1390.2970,0.136692
1392.1607,0.138838
1394.0244,0.142849
1395.8880,0.146346
1397.7517,0.147173
1399.6154,0.148045
1401.4790,0.147992
1403.3427,0.149055
1405.2064,0.150482
1407.0700,0.147904
1408.9337,0.141772
1410.7974,0.133693
1412.6610,0.125546
1414.5247,0.120738
1416.3884,0.118555
1418.2520,0.115697
1420.1157,0.108580
1421.9794,0.103158
1423.8431,0.099513
1425.7067,0.093193
1427.5704,0.086925
1429.4341,0.082282
1431.2977,0.078984
1433.1614,0.077438
1435.0251,0.078504
1436.8887,0.083141
1438.7524,0.085473
1440.6161,0.086315
1442.4797,0.089071
1444.3434,0.092474
1446.2071,0.096952
1448.0707,0.103159
1449.9344,0.104188
1451.7981,0.096132
1453.6618,0.085358
1455.5254,0.080900
1457.3891,0.086676
1459.2528,0.089953
1461.1164,0.089059
1462.9801,0.090666
1464.8438,0.094749
1466.7074,0.096374
1468.5711,0.095547
1470.4348,0.096322
1472.2984,0.101092
1474.1621,0.105115
1476.0258,0.105713
1477.8895,0.106500
1479.7531,0.107454
1481.6168,0.108568
1483.4805,0.108183
1485.3441,0.106444
1487.2078,0.104409
1489.0715,0.102068
1490.9351,0.097288
1492.7988,0.090716
1494.6625,0.086625
1496.5261,0.083269
1498.3898,0.078949
1500.2535,0.074272
1502.1171,0.069958
1503.9808,0.066793
1505.8445,0.067025
1507.7082,0.070269
1509.5718,0.066813
1511.4355,0.064224
1513.2992,0.062987
1515.1628,0.062734
1517.0265,0.063919
1518.8902,0.063719
1520.7538,0.065333
1522.6175,0.068045
1524.4812,0.067815
1526.3448,0.069049
1528.2085,0.070196
1530.0722,0.069715
1531.9359,0.070856
1533.7995,0.074500
1535.6632,0.074206
1537.5269,0.072964
1539.3905,0.078013
1541.2542,0.088680
1543.1179,0.089392
1544.9815,0.090594
1546.8452,0.090887
1548.7089,0.091892
1550.5725,0.095415
1552.4362,0.097196
1554.2999,0.098645
1556.1635,0.100502
1558.0272,0.108022
1559.8909,0.127417
1561.7546,0.120315
1563.6182,0.117613
1565.4819,0.120470
1567.3456,0.123666
1569.2092,0.129075
1571.0729,0.133919
1572.9366,0.134149
1574.8002,0.137725
1576.6639,0.146215
1578.5276,0.147686
1580.3912,0.146712
1582.2549,0.147418
1584.1186,0.147174
1585.9822,0.145345
1587.8459,0.142667
1589.7096,0.139382
1591.5733,0.135937
1593.4369,0.133474
1595.3006,0.132369
1597.1643,0.132290
1599.0279,0.133557
1600.8916,0.136388
1602.7553,0.140231
1604.6189,0.144088
1606.4826,0.147467
1608.3463,0.150318
1610.2099,0.151557
1612.0736,0.151375
1613.9373,0.151167
1615.8010,0.152555
1617.6646,0.151900
1619.5283,0.148183
1621.3920,0.145837
1623.2556,0.142919
1625.1193,0.136619
1626.9830,0.131052
1628.8466,0.124373
1630.7103,0.117721
1632.5740,0.112570
1634.4376,0.108455
1636.3013,0.100908
1638.1650,0.093159
1640.0286,0.088807
1641.8923,0.084432
1643.7560,0.080344
1645.6197,0.077462
1647.4833,0.072618
1649.3470,0.068034
1651.2107,0.066790
1653.0743,0.065961
1654.9380,0.060547
1656.8017,0.057926
1658.6653,0.056364
1660.5290,0.055168
1662.3927,0.054420
1664.2563,0.053540
1666.1200,0.053210
1667.9837,0.054417
1669.8474,0.057458
1671.7110,0.060089
1673.5747,0.062500
1675.4384,0.067714
1677.3020,0.073279
1679.1657,0.076748
1681.0294,0.081158
1682.8930,0.084147
1684.7567,0.081638
1686.6204,0.074101
1688.4840,0.067767
1690.3477,0.059020
1692.2114,0.050355
1694.0750,0.044158
1695.9387,0.037770
1697.8024,0.032453
1699.6661,0.030934
1701.5297,0.028207
1703.3934,0.026029
1705.2571,0.024365
1707.1207,0.021910
1708.9844,0.020102
1710.8481,0.018667
1712.7117,0.017391
1714.5754,0.016442
1716.4391,0.015913
1718.3027,0.015407
1720.1664,0.014880
1722.0301,0.014555
1723.8937,0.014299
1725.7574,0.013847
1727.6211,0.013088
1729.4848,0.012071
1731.3484,0.011334
1733.2121,0.011151
1735.0758,0.010933
1736.9394,0.010334
1738.8031,0.010066
1740.6668,0.010018
1742.5304,0.009898
1744.3941,0.009557
1746.2578,0.009259
1748.1214,0.008987
1749.9851,0.008958
1751.8488,0.008954
1753.7125,0.008702
1755.5761,0.008571
1757.4398,0.008619
1759.3035,0.008578
1761.1671,0.008584
1763.0308,0.008687
1764.8945,0.008684
1766.7581,0.008498
1768.6218,0.008433
1770.4855,0.008352
1772.3491,0.008342
1774.2128,0.008398
1776.0765,0.008358
1777.9401,0.008225
1779.8038,0.008205
1781.6675,0.008309
1783.5312,0.008509
1785.3948,0.008629
1787.2585,0.008540
1789.1222,0.008355
1790.9858,0.008473
1792.8495,0.008818
1794.7132,0.008742
1796.5768,0.008493
1798.4405,0.008285
1800.3042,0.008256
1802.1678,0.008311
1804.0315,0.008154
1805.8952,0.008115
1807.7589,0.008166
1809.6225,0.008133
1811.4862,0.008136
1813.3499,0.008118
1815.2135,0.008072
1817.0772,0.008013
1818.9409,0.008163
1820.8045,0.008373
1822.6682,0.008369
1824.5319,0.008428
1826.3955,0.008314
1828.2592,0.008176
1830.1229,0.008210
1831.9865,0.008126
1833.8502,0.007985
1835.7139,0.008117
1837.5776,0.008221
1839.4412,0.008036
1841.3049,0.008114
1843.1686,0.008419
1845.0322,0.008571
1846.8959,0.008512
1848.7596,0.008467
1850.6232,0.008597
1852.4869,0.008639
1854.3506,0.008549
1856.2142,0.008531
1858.0779,0.008401
1859.9416,0.008222
1861.8052,0.008316
1863.6689,0.008387
1865.5326,0.008497
1867.3963,0.008652
1869.2599,0.008710
1871.1236,0.008594
1872.9873,0.008555
1874.8509,0.008541
1876.7146,0.008803
1878.5783,0.009028
1880.4419,0.009086
1882.3056,0.008999
1884.1693,0.008817
1886.0329,0.008616
1887.8966,0.008539
1889.7603,0.008389
1891.6240,0.008432
1893.4876,0.008674
1895.3513,0.008742
1897.2150,0.008553
1899.0786,0.008728
1900.9423,0.009270
1902.8060,0.009243
1904.6696,0.009103
1906.5333,0.008922
1908.3970,0.008561
1910.2606,0.008758
1912.1243,0.009194
1913.9880,0.009288
1915.8516,0.009130
1917.7153,0.009333
1919.5790,0.009337
1921.4427,0.008922
1923.3063,0.008839
1925.1700,0.008933
1927.0337,0.009046
1928.8973,0.009085
1930.7610,0.008642
1932.6247,0.008501
1934.4883,0.008884
1936.3520,0.008936
1938.2157,0.008756
1940.0793,0.008520
1941.9430,0.008236
1943.8067,0.007752
1945.6704,0.007975
1947.5340,0.008813
1949.3977,0.008752
1951.2614,0.008414
1953.1250,0.007942
1954.9887,0.007288
1956.8524,0.007155
1958.7160,0.007189
1960.5797,0.007381
1962.4434,0.006752
1964.3070,0.006061
1966.1707,0.006444
1968.0344,0.006272
1969.8980,0.005683
1971.7617,0.005639
1973.6254,0.006063
1975.4891,0.006178
1977.3527,0.006700
1979.2164,0.007044
1981.0801,0.006938
1982.9437,0.007975
1984.8074,0.008648
1986.6711,0.008195
1988.5347,0.008384
1990.3984,0.009225
1992.2621,0.009165
1994.1257,0.008885
1995.9894,0.009372
1997.8531,0.008957
1999.7167,0.008185
2001.5804,0.007905
2003.4441,0.007963
2005.3078,0.008680
2007.1714,0.009019
2009.0351,0.008504
2010.8988,0.007880
2012.7624,0.007550
2014.6261,0.008408
2016.4898,0.009531
2018.3534,0.009296
2020.2171,0.008527
2022.0808,0.009610
2023.9444,0.010040
2025.8081,0.009164
2027.6718,0.009440
2029.5355,0.010188
2031.3991,0.010251
2033.2628,0.010106
2035.1265,0.010176
2036.9901,0.010052
2038.8538,0.009927
2040.7175,0.011068
2042.5811,0.012399
2044.4448,0.011700
2046.3085,0.010910
2048.1721,0.011977
2050.0358,0.012552
2051.8995,0.012524
2053.7631,0.012512
2055.6268,0.011931
2057.4905,0.011533
2059.3542,0.012103
2061.2178,0.012131
2063.0815,0.011900
2064.9452,0.011985
2066.8088,0.012069
2068.6725,0.011903
2070.5362,0.011444
2072.3998,0.011124
2074.2635,0.011089
2076.1272,0.010990
2077.9908,0.011345
2079.8545,0.011696
2081.7182,0.011725
2083.5819,0.011973
2085.4455,0.012239
2087.3092,0.012303
2089.1729,0.011679
2091.0365,0.011069
2092.9002,0.011274
2094.7639,0.011394
2096.6275,0.011440
2098.4912,0.011617
2100.3549,0.011545
2102.2185,0.011638
2104.0822,0.011620
2105.9459,0.011245
2107.8095,0.011511
2109.6732,0.012324
2111.5369,0.012353
2113.4006,0.011663
2115.2642,0.011576
2117.1279,0.012139
2118.9916,0.012249
2120.8552,0.012106
2122.7189,0.012153
2124.5826,0.011544
2126.4462,0.010761
2128.3099,0.010674
2130.1736,0.010132
2132.0372,0.009631
2133.9009,0.009827
2135.7646,0.009670
2137.6282,0.009727
2139.4919,0.009626
2141.3556,0.008883
2143.2193,0.009090
2145.0829,0.009133
2146.9466,0.007859
2148.8103,0.006505
2150.6739,0.005365
2152.5376,0.004719
2154.4013,0.004267
2156.2649,0.002909
2158.1286,0.002169
2159.9923,0.003240
2161.8559,0.005364
2163.7196,0.007032
2165.5833,0.007399
2167.4470,0.006686
2169.3106,0.005718
2171.1743,0.006687
2173.0380,0.008521
2174.9016,0.008292
2176.7653,0.006835
2178.6290,0.006227
2180.4926,0.006232
2182.3563,0.007522
2184.2200,0.009151
2186.0836,0.008847
2187.9473,0.009216
2189.8110,0.010119
2191.6746,0.010323
2193.5383,0.010773
2195.4020,0.010725
2197.2657,0.010070
2199.1293,0.009864
2200.9930,0.010488
2202.8567,0.011141
2204.7203,0.011363
2206.5840,0.011552
2208.4477,0.011150
2210.3113,0.011291
2212.1750,0.012212
2214.0387,0.011771
2215.9023,0.011880
2217.7660,0.012748
2219.6297,0.012345
2221.4934,0.011643
2223.3570,0.011706
2225.2207,0.012602
2227.0844,0.013152
2228.9480,0.013566
2230.8117,0.014127
2232.6754,0.013915
2234.5390,0.014106
2236.4027,0.014846
2238.2664,0.014877
2240.1300,0.014681
2241.9937,0.014789
2243.8574,0.015046
2245.7210,0.015524
2247.5847,0.015770
2249.4484,0.015947
2251.3121,0.016224
2253.1757,0.016073
2255.0394,0.015896
2256.9031,0.016043
2258.7667,0.016492
2260.6304,0.017007
2262.4941,0.017110
2264.3577,0.016890
2266.2214,0.016937
2268.0851,0.017292
2269.9487,0.017556
2271.8124,0.017749
2273.6761,0.017832
2275.5397,0.018408
2277.4034,0.019463
2279.2671,0.019870
2281.1308,0.019833
2282.9944,0.019698
2284.8581,0.019436
2286.7218,0.019108
2288.5854,0.019109
2290.4491,0.020030
2292.3128,0.020563
2294.1764,0.020277
2296.0401,0.020057
2297.9038,0.020132
2299.7674,0.020444
2301.6311,0.020645
2303.4948,0.020655
2305.3585,0.020593
2307.2221,0.020684
2309.0858,0.020807
2310.9495,0.020754
2312.8131,0.020476
2314.6768,0.020537
2316.5405,0.020928
2318.4041,0.021024
2320.2678,0.021187
2322.1315,0.021824
2323.9951,0.022342
2325.8588,0.021825
2327.7225,0.020810
2329.5861,0.020348
2331.4498,0.020342
2333.3135,0.020501
2335.1772,0.020756
2337.0408,0.020588
2338.9045,0.020291
2340.7682,0.020860
2342.6318,0.021829
2344.4955,0.021931
2346.3592,0.021494
2348.2228,0.021181
2350.0865,0.020949
2351.9502,0.020916
2353.8138,0.021035
2355.6775,0.021235
2357.5412,0.021406
2359.4049,0.021416
2361.2685,0.021111
2363.1322,0.021181
2364.9959,0.021989
2366.8595,0.022197
2368.7232,0.022091
2370.5869,0.022279
2372.4505,0.022408
2374.3142,0.022604
2376.1779,0.022835
2378.0415,0.022856
2379.9052,0.022919
2381.7689,0.022883
2383.6325,0.022671
2385.4962,0.022965
2387.3599,0.023226
2389.2236,0.023269
2391.0872,0.023532
2392.9509,0.023730
2394.8146,0.023746
2396.6782,0.023672
2398.5419,0.023671
2400.4056,0.023761
2402.2692,0.023828
2404.1329,0.023951
2405.9966,0.024058
2407.8602,0.023988
2409.7239,0.024090
2411.5876,0.024539
2413.4512,0.024735
2415.3149,0.024525
2417.1786,0.024243
2419.0423,0.024458
2420.9059,0.024871
2422.7696,0.024939
2424.6333,0.025280
2426.4969,0.025537
2428.3606,0.025547
2430.2243,0.025911
2432.0879,0.026009
2433.9516,0.025436
2435.8153,0.025293
2437.6789,0.026056
2439.5426,0.026637
2441.4063,0.026808
2443.2700,0.026898
2445.1336,0.027015
2446.9973,0.027535
2448.8610,0.027674
2450.7246,0.027234
2452.5883,0.027412
2454.4520,0.027918
2456.3156,0.027908
2458.1793,0.027941
2460.0430,0.028221
2461.9066,0.028240
2463.7703,0.028245
2465.6340,0.028553
2467.4976,0.028845
2469.3613,0.029228
2471.2250,0.029427
2473.0887,0.029144
2474.9523,0.029003
2476.8160,0.029295
2478.6797,0.029746
2480.5433,0.030207
2482.4070,0.030592
2484.2707,0.030813
2486.1343,0.031044
2487.9980,0.031136
2489.8617,0.030998
2491.7253,0.031098
2493.5890,0.031331
2495.4527,0.031418
2497.3164,0.031446
2499.1800,0.031646
2501.0437,0.031673
2502.9074,0.031445
2504.7710,0.031567
2506.6347,0.031901
2508.4984,0.032213
2510.3620,0.032526
2512.2257,0.032553
2514.0894,0.032540
2515.9530,0.032902
2517.8167,0.033192
2519.6804,0.033419
2521.5440,0.033693
2523.4077,0.033677
2525.2714,0.033545
2527.1351,0.033744
