Wavenumber,Intensity
650.4205,0.155756
652.2841,0.154577
654.1478,0.152030
656.0115,0.149058
657.8751,0.148667
659.7388,0.147368
661.6025,0.147199
663.4661,0.145237
665.3298,0.141425
667.1935,0.139074
669.0571,0.139615
670.9208,0.138185
672.7845,0.136880
674.6481,0.135889
676.5118,0.137394
678.3755,0.137540
680.2392,0.136432
682.1028,0.134427
683.9665,0.132440
685.8302,0.131355
687.6938,0.132797
689.5575,0.134175
691.4212,0.134610
693.2848,0.132904
695.1485,0.131344
697.0122,0.131594
698.8758,0.133389
700.7395,0.133632
702.6032,0.133157
704.4669,0.131256
706.3305,0.127867
708.1942,0.125033
710.0579,0.122637
711.9215,0.119727
713.7852,0.116947
715.6489,0.115090
717.5125,0.113125
719.3762,0.110411
721.2399,0.108270
723.1035,0.106323
724.9672,0.104032
726.8309,0.101799
728.6945,0.100673
730.5582,0.099756
732.4219,0.098375
734.2856,0.097579
736.1492,0.096585
738.0129,0.095438
739.8766,0.095418
741.7402,0.095387
743.6039,0.095533
745.4676,0.095601
747.3312,0.094838
749.1949,0.093756
751.0586,0.093100
752.9222,0.092868
754.7859,0.092131
756.6496,0.090659
758.5132,0.089752
760.3769,0.089630
762.2406,0.089444
764.1043,0.088433
765.9679,0.088039
767.8316,0.088555
769.6953,0.088818
771.5589,0.088877
773.4226,0.089463
775.2863,0.090477
777.1499,0.091371
779.0136,0.091721
780.8773,0.092286
782.7409,0.093223
784.6046,0.093825
786.4683,0.093948
788.3320,0.094833
790.1956,0.095696
792.0593,0.095668
793.9230,0.095401
795.7866,0.095336
797.6503,0.095396
799.5140,0.095425
801.3776,0.094979
803.2413,0.094302
805.1050,0.093622
806.9686,0.093325
808.8323,0.093000
810.6960,0.091936
812.5596,0.089878
814.4233,0.088028
816.2870,0.086638
818.1507,0.085472
820.0143,0.084394
821.8780,0.083360
823.7417,0.082400
825.6053,0.081604
827.4690,0.080910
829.3327,0.080511
831.1963,0.078744
833.0600,0.074714
834.9237,0.070996
836.7873,0.069164
838.6510,0.068537
840.5147,0.068436
842.3784,0.068478
844.2420,0.068792
846.1057,0.069117
847.9694,0.069140
849.8330,0.068636
851.6967,0.068231
853.5604,0.068222
855.4240,0.068419
857.2877,0.068799
859.1514,0.069147
861.0150,0.069492
862.8787,0.070068
864.7424,0.070697
866.6060,0.071267
868.4697,0.071876
870.3334,0.072606
872.1971,0.073219
874.0607,0.073647
875.9244,0.073802
877.7881,0.074190
879.6517,0.074770
881.5154,0.075280
883.3791,0.075921
885.2427,0.076853
887.1064,0.077689
888.9701,0.078289
890.8337,0.078883
892.6974,0.079378
894.5611,0.079649
896.4247,0.079756
898.2884,0.079607
900.1521,0.079531
902.0158,0.079728
903.8794,0.080551
905.7431,0.081854
907.6068,0.083439
909.4704,0.085259
911.3341,0.087029
913.1978,0.088903
915.0614,0.089999
916.9251,0.088095
918.7888,0.083893
920.6524,0.080838
922.5161,0.080282
924.3798,0.081005
926.2435,0.081845
928.1071,0.082546
929.9708,0.083262
931.8345,0.084072
933.6981,0.085164
935.5618,0.086513
937.4255,0.087964
939.2891,0.089477
941.1528,0.091061
943.0165,0.092666
944.8801,0.094317
946.7438,0.096126
948.6075,0.098307
950.4711,0.100400
952.3348,0.102434
954.1985,0.104599
956.0622,0.106883
957.9258,0.109045
959.7895,0.111011
961.6532,0.112840
963.5168,0.114510
965.3805,0.116293
967.2442,0.118545
969.1078,0.120848
970.9715,0.123332
972.8352,0.126430
974.6988,0.130390
976.5625,0.135624
978.4262,0.143189
980.2899,0.152594
982.1535,0.157209
984.0172,0.150744
985.8809,0.142177
987.7445,0.140065
989.6082,0.142415
991.4719,0.145475
993.3355,0.148250
995.1992,0.150925
997.0629,0.153489
998.9265,0.155763
1000.7902,0.157888
1002.6539,0.160139
1004.5175,0.162326
1006.3812,0.164473
1008.2449,0.166618
1010.1086,0.168415
1011.9722,0.169851
1013.8359,0.170751
1015.6996,0.171238
1017.5632,0.171427
1019.4269,0.171227
1021.2906,0.170596
1023.1542,0.169799
1025.0179,0.168841
1026.8816,0.167716
1028.7452,0.166532
1030.6089,0.165572
1032.4726,0.164563
1034.3362,0.163710
1036.1999,0.163146
1038.0636,0.162739
1039.9273,0.162655
1041.7909,0.162657
1043.6546,0.162572
1045.5183,0.162258
1047.3819,0.161091
1049.2456,0.158774
1051.1093,0.154800
1052.9729,0.149627
1054.8366,0.144489
1056.7003,0.140300
1058.5639,0.137512
1060.4276,0.135715
1062.2913,0.134264
1064.1550,0.133017
1066.0186,0.131921
1067.8823,0.130925
1069.7460,0.129740
1071.6096,0.128390
1073.4733,0.126890
1075.3370,0.125289
1077.2006,0.123782
1079.0643,0.122604
1080.9280,0.121636
1082.7916,0.120859
1084.6553,0.120236
1086.5190,0.119587
1088.3826,0.118657
1090.2463,0.117582
1092.1100,0.116576
1093.9737,0.115577
1095.8373,0.114642
1097.7010,0.113982
1099.5647,0.113456
1101.4283,0.112908
1103.2920,0.112234
1105.1557,0.111098
1107.0193,0.109079
1108.8830,0.106021
1110.7467,0.102048
1112.6103,0.097688
1114.4740,0.093378
1116.3377,0.089461
1118.2014,0.086061
1120.0650,0.083391
1121.9287,0.081518
1123.7924,0.080052
1125.6560,0.078742
1127.5197,0.077374
1129.3834,0.075883
1131.2470,0.074424
1133.1107,0.072947
1134.9744,0.071484
1136.8380,0.070166
1138.7017,0.069240
1140.5654,0.068649
1142.4290,0.068440
1144.2927,0.068703
1146.1564,0.069128
1148.0201,0.069680
1149.8837,0.070442
1151.7474,0.071166
1153.6111,0.071605
1155.4747,0.071647
1157.3384,0.071205
1159.2021,0.070405
1161.0657,0.069368
1162.9294,0.068119
1164.7931,0.066963
1166.6567,0.065748
1168.5204,0.064344
1170.3841,0.062968
1172.2477,0.061411
1174.1114,0.059294
1175.9751,0.056745
1177.8388,0.054263
1179.7024,0.052479
1181.5661,0.051561
1183.4298,0.051309
1185.2934,0.051489
1187.1571,0.052024
1189.0208,0.052621
1190.8844,0.053069
1192.7481,0.053389
1194.6118,0.053533
1196.4754,0.053450
1198.3391,0.053241
1200.2028,0.053133
1202.0665,0.053140
1203.9301,0.052994
1205.7938,0.052621
1207.6575,0.052463
1209.5211,0.052823
1211.3848,0.053636
1213.2485,0.054741
1215.1121,0.055945
1216.9758,0.057350
1218.8395,0.058901
1220.7031,0.060374
1222.5668,0.061844
1224.4305,0.063476
1226.2941,0.065263
1228.1578,0.067021
1230.0215,0.068676
1231.8852,0.070164
1233.7488,0.071545
1235.6125,0.072790
1237.4762,0.073713
1239.3398,0.074342
1241.2035,0.074755
1243.0672,0.075063
1244.9308,0.075288
1246.7945,0.075473
1248.6582,0.075624
1250.5218,0.075599
1252.3855,0.075605
1254.2492,0.075620
1256.1129,0.075371
1257.9765,0.074979
1259.8402,0.074684
1261.7039,0.074526
1263.5675,0.074486
1265.4312,0.074501
1267.2949,0.074339
1269.1585,0.074096
1271.0222,0.074003
1272.8859,0.074019
1274.7495,0.073977
1276.6132,0.073951
1278.4769,0.073954
1280.3405,0.073986
1282.2042,0.073933
1284.0679,0.073706
1285.9316,0.073480
1287.7952,0.073539
1289.6589,0.073861
1291.5226,0.074218
1293.3862,0.074761
1295.2499,0.075668
1297.1136,0.076842
1298.9772,0.078232
1300.8409,0.079902
1302.7046,0.081629
1304.5682,0.082709
1306.4319,0.081968
1308.2956,0.078400
1310.1592,0.072585
1312.0229,0.067194
1313.8866,0.064050
1315.7503,0.063046
1317.6139,0.063425
1319.4776,0.064254
1321.3413,0.064906
1323.2049,0.065770
1325.0686,0.066979
1326.9323,0.068100
1328.7959,0.069264
1330.6596,0.070328
1332.5233,0.070873
1334.3869,0.070807
1336.2506,0.070515
1338.1143,0.070626
1339.9780,0.071299
1341.8416,0.071142
1343.7053,0.070781
1345.5690,0.071043
1347.4326,0.071902
1349.2963,0.073086
1351.1600,0.074340
1353.0236,0.075914
1354.8873,0.077938
1356.7510,0.079703
1358.6146,0.081021
1360.4783,0.082457
1362.3420,0.085150
1364.2056,0.087285
1366.0693,0.087653
1367.9330,0.088683
1369.7967,0.089861
1371.6603,0.090136
1373.5240,0.091161
1375.3877,0.092392
1377.2513,0.092585
1379.1150,0.093293
1380.9787,0.094294
1382.8423,0.095155
1384.7060,0.096385
1386.5697,0.098967
1388.4333,0.102206
1390.2970,0.103170
1392.1607,0.103007
1394.0244,0.103056
1395.8880,0.102623
1397.7517,0.100908
1399.6154,0.099046
1401.4790,0.096757
1403.3427,0.094528
1405.2064,0.091472
1407.0700,0.086527
1408.9337,0.081137
1410.7974,0.076101
1412.6610,0.072183
1414.5247,0.069787
1416.3884,0.068878
1418.2520,0.070064
1420.1157,0.072112
1421.9794,0.071428
1423.8431,0.069595
1425.7067,0.065759
1427.5704,0.061890
1429.4341,0.059603
1431.2977,0.058384
1433.1614,0.057342
1435.0251,0.057209
1436.8887,0.058851
1438.7524,0.059270
1440.6161,0.058689
1442.4797,0.058758
1444.3434,0.058771
1446.2071,0.058849
1448.0707,0.059235
1449.9344,0.058535
1451.7981,0.056479
1453.6618,0.053872
1455.5254,0.052465
1457.3891,0.054774
1459.2528,0.055164
1461.1164,0.053235
1462.9801,0.052233
1464.8438,0.052512
1466.7074,0.051887
1468.5711,0.050224
1470.4348,0.049109
1472.2984,0.049720
1474.1621,0.050506
1476.0258,0.050127
1477.8895,0.049509
1479.7531,0.049036
1481.6168,0.049141
1483.4805,0.048966
1485.3441,0.048379
1487.2078,0.048521
1489.0715,0.049978
1490.9351,0.051275
1492.7988,0.050035
1494.6625,0.049127
1496.5261,0.050119
1498.3898,0.051670
1500.2535,0.051635
1502.1171,0.050663
1503.9808,0.049702
1505.8445,0.050955
1507.7082,0.056986
1509.5718,0.056757
1511.4355,0.055609
1513.2992,0.055114
1515.1628,0.054983
1517.0265,0.056185
1518.8902,0.056654
1520.7538,0.057761
1522.6175,0.060291
1524.4812,0.060468
1526.3448,0.061283
1528.2085,0.061936
1530.0722,0.061256
1531.9359,0.061586
1533.7995,0.064066
1535.6632,0.063870
1537.5269,0.062510
1539.3905,0.064772
1541.2542,0.071028
1543.1179,0.071693
1544.9815,0.072282
1546.8452,0.071973
1548.7089,0.072061
1550.5725,0.073648
1552.4362,0.074186
1554.2999,0.074522
1556.1635,0.074936
1558.0272,0.078023
1559.8909,0.089750
1561.7546,0.086763
1563.6182,0.084761
1565.4819,0.085765
1567.3456,0.087084
1569.2092,0.090165
1571.0729,0.093725
1572.9366,0.093823
1574.8002,0.095389
1576.6639,0.101404
1578.5276,0.104281
1580.3912,0.104546
1582.2549,0.106386
1584.1186,0.108428
1585.9822,0.110231
1587.8459,0.111674
1589.7096,0.112753
1591.5733,0.113427
1593.4369,0.113941
1595.3006,0.114124
1597.1643,0.113847
1599.0279,0.112890
1600.8916,0.111779
1602.7553,0.110559
1604.6189,0.109397
1606.4826,0.108018
1608.3463,0.106505
1610.2099,0.104417
1612.0736,0.102075
1613.9373,0.099751
1615.8010,0.097814
1617.6646,0.094785
1619.5283,0.091464
1621.3920,0.088635
1623.2556,0.085677
1625.1193,0.082125
1626.9830,0.079279
1628.8466,0.075621
1630.7103,0.071650
1632.5740,0.068115
1634.4376,0.065417
1636.3013,0.062656
1638.1650,0.060328
1640.0286,0.058973
1641.8923,0.058051
1643.7560,0.057177
1645.6197,0.056958
1647.4833,0.057386
1649.3470,0.056450
1651.2107,0.055385
1653.0743,0.057125
1654.9380,0.058535
1656.8017,0.056500
1658.6653,0.055474
1660.5290,0.055097
1662.3927,0.054826
1664.2563,0.053897
1666.1200,0.052378
1667.9837,0.051294
1669.8474,0.050594
1671.7110,0.050059
1673.5747,0.049827
1675.4384,0.050652
1677.3020,0.051041
1679.1657,0.050819
1681.0294,0.050987
1682.8930,0.051769
1684.7567,0.054404
1686.6204,0.054746
1688.4840,0.053525
1690.3477,0.052175
1692.2114,0.050531
1694.0750,0.049070
1695.9387,0.047764
1697.8024,0.046510
1699.6661,0.045969
1701.5297,0.045132
1703.3934,0.043343
1705.2571,0.041720
1707.1207,0.039726
1708.9844,0.038052
1710.8481,0.036810
1712.7117,0.035751
1714.5754,0.034975
1716.4391,0.034872
1718.3027,0.035506
1720.1664,0.034925
1722.0301,0.033950
1723.8937,0.032995
1725.7574,0.031681
1727.6211,0.030373
1729.4848,0.029036
1731.3484,0.027753
1733.2121,0.027017
1735.0758,0.025980
1736.9394,0.024486
1738.8031,0.023591
1740.6668,0.022516
1742.5304,0.021432
1744.3941,0.020412
1746.2578,0.019361
1748.1214,0.018475
1749.9851,0.017823
1751.8488,0.017200
1753.7125,0.016356
1755.5761,0.015923
1757.4398,0.015824
1759.3035,0.015418
1761.1671,0.015187
1763.0308,0.015163
1764.8945,0.014726
1766.7581,0.014277
1768.6218,0.014123
1770.4855,0.014235
1772.3491,0.014488
1774.2128,0.014509
1776.0765,0.014468
1777.9401,0.014541
1779.8038,0.014658
1781.6675,0.014769
1783.5312,0.014774
1785.3948,0.014807
1787.2585,0.014626
1789.1222,0.014370
1790.9858,0.014454
1792.8495,0.014852
1794.7132,0.014850
1796.5768,0.014610
1798.4405,0.014435
1800.3042,0.014546
1802.1678,0.014893
1804.0315,0.014856
1805.8952,0.014652
1807.7589,0.014797
1809.6225,0.014888
1811.4862,0.014841
1813.3499,0.014717
1815.2135,0.014553
1817.0772,0.014532
1818.9409,0.014649
1820.8045,0.014779
1822.6682,0.014729
1824.5319,0.014783
1826.3955,0.014781
1828.2592,0.014459
1830.1229,0.014846
1831.9865,0.015059
1833.8502,0.014656
1835.7139,0.014557
1837.5776,0.014618
1839.4412,0.014508
1841.3049,0.014355
1843.1686,0.014544
1845.0322,0.015159
1846.8959,0.015086
1848.7596,0.014715
1850.6232,0.014798
1852.4869,0.014917
1854.3506,0.014829
1856.2142,0.014860
1858.0779,0.015087
1859.9416,0.015089
1861.8052,0.014850
1863.6689,0.014623
1865.5326,0.014414
1867.3963,0.014431
1869.2599,0.014967
1871.1236,0.015211
1872.9873,0.014951
1874.8509,0.014735
1876.7146,0.014864
1878.5783,0.015115
1880.4419,0.014882
1882.3056,0.014768
1884.1693,0.014906
1886.0329,0.015048
1887.8966,0.014915
1889.7603,0.014451
1891.6240,0.014373
1893.4876,0.014811
1895.3513,0.014943
1897.2150,0.014719
1899.0786,0.014732
1900.9423,0.014726
1902.8060,0.014435
1904.6696,0.014141
1906.5333,0.014486
1908.3970,0.014653
1910.2606,0.014247
1912.1243,0.013964
1913.9880,0.013943
1915.8516,0.014098
1917.7153,0.014284
1919.5790,0.014318
1921.4427,0.014195
1923.3063,0.013991
1925.1700,0.014005
1927.0337,0.013947
1928.8973,0.013619
1930.7610,0.013834
1932.6247,0.014267
1934.4883,0.014081
1936.3520,0.013674
1938.2157,0.013228
1940.0793,0.012950
1941.9430,0.013214
1943.8067,0.013255
1945.6704,0.012832
1947.5340,0.011993
1949.3977,0.011452
1951.2614,0.011665
1953.1250,0.011466
1954.9887,0.011028
1956.8524,0.010821
1958.7160,0.010739
1960.5797,0.010464
1962.4434,0.010704
1964.3070,0.009913
1966.1707,0.007980
1968.0344,0.007558
1969.8980,0.007894
1971.7617,0.007694
1973.6254,0.007772
1975.4891,0.008277
1977.3527,0.008006
1979.2164,0.007805
1981.0801,0.008970
1982.9437,0.009835
1984.8074,0.010281
1986.6711,0.011164
1988.5347,0.012027
1990.3984,0.011785
1992.2621,0.010386
1994.1257,0.009156
1995.9894,0.009342
1997.8531,0.010025
1999.7167,0.010320
2001.5804,0.010111
2003.4441,0.009954
2005.3078,0.010160
2007.1714,0.010170
2009.0351,0.008995
2010.8988,0.008335
2012.7624,0.008110
2014.6261,0.006783
2016.4898,0.005915
2018.3534,0.005626
2020.2171,0.006897
2022.0808,0.008715
2023.9444,0.008264
2025.8081,0.007195
2027.6718,0.008082
2029.5355,0.008301
2031.3991,0.007654
2033.2628,0.007943
2035.1265,0.007395
2036.9901,0.008599
2038.8538,0.010023
2040.7175,0.009401
2042.5811,0.009421
2044.4448,0.009810
2046.3085,0.010733
2048.1721,0.012352
2050.0358,0.012810
2051.8995,0.012133
2053.7631,0.012221
2055.6268,0.013650
2057.4905,0.014095
2059.3542,0.013709
2061.2178,0.013167
2063.0815,0.013554
2064.9452,0.014643
2066.8088,0.014378
2068.6725,0.014191
2070.5362,0.014598
2072.3998,0.014824
2074.2635,0.015238
2076.1272,0.015358
2077.9908,0.015596
2079.8545,0.015971
2081.7182,0.015992
2083.5819,0.015984
2085.4455,0.016487
2087.3092,0.017160
2089.1729,0.016836
2091.0365,0.015710
2092.9002,0.015054
2094.7639,0.015241
2096.6275,0.015793
2098.4912,0.016253
2100.3549,0.016153
2102.2185,0.015916
2104.0822,0.016140
2105.9459,0.016502
2107.8095,0.016787
2109.6732,0.016371
2111.5369,0.016112
2113.4006,0.016938
2115.2642,0.017373
2117.1279,0.016847
2118.9916,0.016597
2120.8552,0.016710
2122.7189,0.016197
2124.5826,0.015616
2126.4462,0.015531
2128.3099,0.015216
2130.1736,0.014693
2132.0372,0.014276
2133.9009,0.014281
2135.7646,0.014489
2137.6282,0.013998
2139.4919,0.013423
2141.3556,0.013513
2143.2193,0.012884
2145.0829,0.011749
2146.9466,0.011068
2148.8103,0.009904
2150.6739,0.008845
2152.5376,0.008629
2154.4013,0.008161
2156.2649,0.007169
2158.1286,0.007543
2159.9923,0.009151
2161.8559,0.010231
2163.7196,0.009846
2165.5833,0.010194
2167.4470,0.010295
2169.3106,0.008855
2171.1743,0.009003
2173.0380,0.010394
2174.9016,0.011212
2176.7653,0.010567
2178.6290,0.009818
2180.4926,0.010513
2182.3563,0.010588
2184.2200,0.010811
2186.0836,0.011572
2187.9473,0.011782
2189.8110,0.012037
2191.6746,0.012829
2193.5383,0.013682
2195.4020,0.014432
2197.2657,0.014794
2199.1293,0.013413
2200.9930,0.012919
2202.8567,0.013992
2204.7203,0.013893
2206.5840,0.013406
2208.4477,0.014240
2210.3113,0.015368
2212.1750,0.015818
2214.0387,0.015794
2215.9023,0.015408
2217.7660,0.015595
2219.6297,0.016302
2221.4934,0.015883
2223.3570,0.015420
2225.2207,0.016023
2227.0844,0.016294
2228.9480,0.016514
2230.8117,0.016866
2232.6754,0.016631
2234.5390,0.016613
2236.4027,0.016827
2238.2664,0.016807
2240.1300,0.017319
2241.9937,0.017761
2243.8574,0.018182
2245.7210,0.018482
2247.5847,0.018292
2249.4484,0.018646
2251.3121,0.018833
2253.1757,0.018218
2255.0394,0.018060
2256.9031,0.018293
2258.7667,0.018447
2260.6304,0.018857
2262.4941,0.018747
2264.3577,0.018693
2266.2214,0.019624
2268.0851,0.020221
2269.9487,0.020122
2271.8124,0.019926
2273.6761,0.020153
2275.5397,0.020492
2277.4034,0.020962
2279.2671,0.021591
2281.1308,0.021809
2282.9944,0.022039
2284.8581,0.022037
2286.7218,0.021721
2288.5854,0.021638
2290.4491,0.021791
2292.3128,0.021944
2294.1764,0.021773
2296.0401,0.021752
2297.9038,0.021829
2299.7674,0.021957
2301.6311,0.022154
2303.4948,0.022252
2305.3585,0.022485
2307.2221,0.022461
2309.0858,0.022309
2310.9495,0.022557
2312.8131,0.022570
2314.6768,0.022375
2316.5405,0.022330
2318.4041,0.022317
2320.2678,0.022825
2322.1315,0.023712
2323.9951,0.023725
2325.8588,0.022864
2327.7225,0.022125
2329.5861,0.022039
2331.4498,0.022146
2333.3135,0.021990
2335.1772,0.021767
2337.0408,0.021808
2338.9045,0.022185
2340.7682,0.022494
2342.6318,0.022703
2344.4955,0.022869
2346.3592,0.022841
2348.2228,0.022509
2350.0865,0.022032
2351.9502,0.021739
2353.8138,0.021620
2355.6775,0.021675
2357.5412,0.021897
2359.4049,0.021953
2361.2685,0.021667
2363.1322,0.021406
2364.9959,0.021549
2366.8595,0.022067
2368.7232,0.022504
2370.5869,0.022867
2372.4505,0.023172
2374.3142,0.023168
2376.1779,0.022892
2378.0415,0.022893
2379.9052,0.022884
2381.7689,0.022573
2383.6325,0.022427
2385.4962,0.022524
2387.3599,0.022543
2389.2236,0.022653
2391.0872,0.022861
2392.9509,0.023014
2394.8146,0.023021
2396.6782,0.022835
2398.5419,0.022739
2400.4056,0.022804
2402.2692,0.022971
2404.1329,0.022832
2405.9966,0.022769
2407.8602,0.023040
2409.7239,0.022999
2411.5876,0.022848
2413.4512,0.023085
2415.3149,0.023561
2417.1786,0.023568
2419.0423,0.023463
2420.9059,0.023614
2422.7696,0.023390
2424.6333,0.023211
2426.4969,0.023605
2428.3606,0.023878
2430.2243,0.023684
2432.0879,0.023542
2433.9516,0.023660
2435.8153,0.023826
2437.6789,0.023861
2439.5426,0.023905
2441.4063,0.024113
2443.2700,0.023997
2445.1336,0.023810
2446.9973,0.024404
2448.8610,0.024663
2450.7246,0.024274
2452.5883,0.024478
2454.4520,0.024926
2456.3156,0.024793
2458.1793,0.024256
2460.0430,0.024080
2461.9066,0.024205
2463.7703,0.024062
2465.6340,0.024145
2467.4976,0.024576
2469.3613,0.024761
2471.2250,0.024711
2473.0887,0.024775
2474.9523,0.025191
2476.8160,0.025373
2478.6797,0.025121
2480.5433,0.024907
2482.4070,0.025007
2484.2707,0.025036
2486.1343,0.025070
2487.9980,0.025150
2489.8617,0.025071
2491.7253,0.025281
2493.5890,0.025462
2495.4527,0.025460
2497.3164,0.025530
2499.1800,0.025864
2501.0437,0.026155
2502.9074,0.025850
2504.7710,0.025442
2506.6347,0.025818
2508.4984,0.026157
2510.3620,0.026018
2512.2257,0.026246
2514.0894,0.026277
2515.9530,0.026204
2517.8167,0.026405
2519.6804,0.026302
2521.5440,0.026008
2523.4077,0.026247
2525.2714,0.026633
2527.1351,0.026657
