Wavenumber,Intensity
650.4205,0.149433
652.2841,0.153543
654.1478,0.156661
656.0115,0.160347
657.8751,0.168433
659.7388,0.177502
661.6025,0.188227
663.4661,0.196570
665.3298,0.202094
667.1935,0.207790
669.0571,0.209183
670.9208,0.196303
672.7845,0.183569
674.6481,0.172660
676.5118,0.165159
678.3755,0.158982
680.2392,0.153735
682.1028,0.148114
683.9665,0.143973
685.8302,0.140113
687.6938,0.137069
689.5575,0.134415
691.4212,0.131566
693.2848,0.128462
695.1485,0.127133
697.0122,0.127056
698.8758,0.127566
700.7395,0.129360
702.6032,0.131334
704.4669,0.128828
706.3305,0.122587
708.1942,0.114959
710.0579,0.108070
711.9215,0.102064
713.7852,0.096920
715.6489,0.092760
717.5125,0.089488
719.3762,0.085956
721.2399,0.083058
723.1035,0.081246
724.9672,0.080312
726.8309,0.079140
728.6945,0.078947
730.5582,0.080983
732.4219,0.082762
734.2856,0.080240
736.1492,0.074990
738.0129,0.071518
739.8766,0.072321
741.7402,0.075889
743.6039,0.077154
745.4676,0.075140
747.3312,0.072743
749.1949,0.070977
751.0586,0.070209
752.9222,0.069513
754.7859,0.068828
756.6496,0.068915
758.5132,0.069499
760.3769,0.070858
762.2406,0.072031
764.1043,0.071487
765.9679,0.070265
767.8316,0.069588
769.6953,0.069672
771.5589,0.069434
773.4226,0.068826
775.2863,0.069176
777.1499,0.070137
779.0136,0.071331
780.8773,0.072985
782.7409,0.074668
784.6046,0.076816
786.4683,0.078718
788.3320,0.079125
790.1956,0.078712
792.0593,0.078833
793.9230,0.079676
795.7866,0.080876
797.6503,0.082721
799.5140,0.085104
801.3776,0.087096
803.2413,0.087912
805.1050,0.086370
806.9686,0.084465
808.8323,0.083237
810.6960,0.082441
812.5596,0.081780
814.4233,0.080996
816.2870,0.080282
818.1507,0.079775
820.0143,0.078917
821.8780,0.077886
823.7417,0.077337
825.6053,0.078046
827.4690,0.079883
829.3327,0.081534
831.1963,0.079925
833.0600,0.074665
834.9237,0.069984
836.7873,0.067953
838.6510,0.067589
840.5147,0.067854
842.3784,0.068251
844.2420,0.069243
846.1057,0.070895
847.9694,0.072948
849.8330,0.075699
851.6967,0.079626
853.5604,0.084817
855.4240,0.090622
857.2877,0.093639
859.1514,0.091044
861.0150,0.085922
862.8787,0.082320
864.7424,0.080315
866.6060,0.078705
868.4697,0.077416
870.3334,0.076912
872.1971,0.077044
874.0607,0.077396
875.9244,0.077985
877.7881,0.078908
879.6517,0.080016
881.5154,0.081230
883.3791,0.082358
885.2427,0.083327
887.1064,0.084409
888.9701,0.085846
890.8337,0.087707
892.6974,0.089793
894.5611,0.091879
896.4247,0.094501
898.2884,0.098022
900.1521,0.102250
902.0158,0.106795
903.8794,0.110869
905.7431,0.113426
907.6068,0.114880
909.4704,0.116755
911.3341,0.119770
913.1978,0.122841
915.0614,0.123506
916.9251,0.118692
918.7888,0.111052
920.6524,0.105975
922.5161,0.104650
924.3798,0.105694
926.2435,0.108007
928.1071,0.110918
929.9708,0.114536
931.8345,0.119287
933.6981,0.124575
935.5618,0.128330
937.4255,0.128534
939.2891,0.126418
941.1528,0.125108
943.0165,0.125438
944.8801,0.126919
946.7438,0.129164
948.6075,0.132050
950.4711,0.135171
952.3348,0.138534
954.1985,0.142470
956.0622,0.146496
957.9258,0.149172
959.7895,0.150324
961.6532,0.151465
963.5168,0.153621
965.3805,0.156739
967.2442,0.160607
969.1078,0.164892
970.9715,0.169494
972.8352,0.174451
974.6988,0.180858
976.5625,0.189616
978.4262,0.202114
980.2899,0.217262
982.1535,0.224166
984.0172,0.213300
985.8809,0.198042
987.7445,0.191752
989.6082,0.192348
991.4719,0.195096
993.3355,0.199149
995.1992,0.204360
997.0629,0.210240
998.9265,0.215960
1000.7902,0.220266
1002.6539,0.223159
1004.5175,0.226689
1006.3812,0.231401
1008.2449,0.235342
1010.1086,0.235746
1011.9722,0.231935
1013.8359,0.224790
1015.6996,0.215483
1017.5632,0.205695
1019.4269,0.197465
1021.2906,0.190858
1023.1542,0.185077
1025.0179,0.180013
1026.8816,0.175617
1028.7452,0.171070
1030.6089,0.165511
1032.4726,0.159015
1034.3362,0.153200
1036.1999,0.148902
1038.0636,0.145317
1039.9273,0.142123
1041.7909,0.139457
1043.6546,0.137067
1045.5183,0.134931
1047.3819,0.132389
1049.2456,0.128343
1051.1093,0.122515
1052.9729,0.116323
1054.8366,0.111325
1056.7003,0.107780
1058.5639,0.105475
1060.4276,0.103939
1062.2913,0.102576
1064.1550,0.101544
1066.0186,0.101082
1067.8823,0.101053
1069.7460,0.101269
1071.6096,0.101721
1073.4733,0.102147
1075.3370,0.102225
1077.2006,0.101972
1079.0643,0.101772
1080.9280,0.101790
1082.7916,0.102175
1084.6553,0.102710
1086.5190,0.103242
1088.3826,0.104096
1090.2463,0.105564
1092.1100,0.107452
1093.9737,0.109709
1095.8373,0.112422
1097.7010,0.115601
1099.5647,0.118872
1101.4283,0.121660
1103.2920,0.123518
1105.1557,0.124202
1107.0193,0.123436
1108.8830,0.120922
1110.7467,0.116426
1112.6103,0.110576
1114.4740,0.104481
1116.3377,0.099111
1118.2014,0.094961
1120.0650,0.092076
1121.9287,0.090225
1123.7924,0.089000
1125.6560,0.087756
1127.5197,0.085772
1129.3834,0.082947
1131.2470,0.079893
1133.1107,0.077338
1134.9744,0.075543
1136.8380,0.074277
1138.7017,0.073381
1140.5654,0.072923
1142.4290,0.072599
1144.2927,0.071567
1146.1564,0.069478
1148.0201,0.067092
1149.8837,0.065476
1151.7474,0.064981
1153.6111,0.065491
1155.4747,0.066666
1157.3384,0.067257
1159.2021,0.066001
1161.0657,0.063413
1162.9294,0.061252
1164.7931,0.060326
1166.6567,0.060430
1168.5204,0.061310
1170.3841,0.062590
1172.2477,0.063574
1174.1114,0.063566
1175.9751,0.062369
1177.8388,0.060656
1179.7024,0.059428
1181.5661,0.059208
1183.4298,0.060111
1185.2934,0.061972
1187.1571,0.064428
1189.0208,0.066516
1190.8844,0.066730
1192.7481,0.064605
1194.6118,0.061504
1196.4754,0.059007
1198.3391,0.057610
1200.2028,0.056906
1202.0665,0.056178
1203.9301,0.055207
1205.7938,0.054262
1207.6575,0.053666
1209.5211,0.053425
1211.3848,0.053377
1213.2485,0.053422
1215.1121,0.053582
1216.9758,0.053841
1218.8395,0.054158
1220.7031,0.054635
1222.5668,0.055092
1224.4305,0.055171
1226.2941,0.054749
1228.1578,0.054068
1230.0215,0.053657
1231.8852,0.053708
1233.7488,0.053976
1235.6125,0.054462
1237.4762,0.055391
1239.3398,0.056490
1241.2035,0.057087
1243.0672,0.056661
1244.9308,0.055679
1246.7945,0.054985
1248.6582,0.054795
1250.5218,0.054963
1252.3855,0.055438
1254.2492,0.056156
1256.1129,0.056906
1257.9765,0.057436
1259.8402,0.057966
1261.7039,0.058796
1263.5675,0.059843
1265.4312,0.060463
1267.2949,0.060115
1269.1585,0.059344
1271.0222,0.058943
1272.8859,0.059046
1274.7495,0.059554
1276.6132,0.060407
1278.4769,0.061739
1280.3405,0.063849
1282.2042,0.066920
1284.0679,0.070536
1285.9316,0.073193
1287.7952,0.073750
1289.6589,0.073365
1291.5226,0.073358
1293.3862,0.073570
1295.2499,0.074465
1297.1136,0.077007
1298.9772,0.081179
1300.8409,0.086830
1302.7046,0.093334
1304.5682,0.098448
1306.4319,0.099275
1308.2956,0.094210
1310.1592,0.084874
1312.0229,0.075941
1313.8866,0.070916
1315.7503,0.069506
1317.6139,0.070094
1319.4776,0.071862
1321.3413,0.073342
1323.2049,0.073972
1325.0686,0.074626
1326.9323,0.075545
1328.7959,0.076526
1330.6596,0.077300
1332.5233,0.077285
1334.3869,0.076261
1336.2506,0.075920
1338.1143,0.077985
1339.9780,0.080623
1341.8416,0.079247
1343.7053,0.075428
1345.5690,0.073216
1347.4326,0.073666
1349.2963,0.075564
1351.1600,0.076927
1353.0236,0.077176
1354.8873,0.077824
1356.7510,0.079565
1358.6146,0.081404
1360.4783,0.082329
1362.3420,0.082321
1364.2056,0.081083
1366.0693,0.079593
1367.9330,0.080122
1369.7967,0.082038
1371.6603,0.083487
1373.5240,0.086565
1375.3877,0.091089
1377.2513,0.093575
1379.1150,0.096131
1380.9787,0.099343
1382.8423,0.101978
1384.7060,0.104899
1386.5697,0.110358
1388.4333,0.117854
1390.2970,0.121206
1392.1607,0.122508
1394.0244,0.124385
1395.8880,0.124502
1397.7517,0.121201
1399.6154,0.117678
1401.4790,0.114174
1403.3427,0.110981
1405.2064,0.107117
1407.0700,0.099735
1408.9337,0.090875
1410.7974,0.083161
1412.6610,0.078002
1414.5247,0.075529
1416.3884,0.075712
1418.2520,0.079806
1420.1157,0.086293
1421.9794,0.086859
1423.8431,0.083709
1425.7067,0.076572
1427.5704,0.068043
1429.4341,0.062005
1431.2977,0.058744
1433.1614,0.057142
1435.0251,0.057453
1436.8887,0.061857
1438.7524,0.064848
1440.6161,0.064022
1442.4797,0.064298
1444.3434,0.065354
1446.2071,0.067048
1448.0707,0.070267
1449.9344,0.072135
1451.7981,0.070664
1453.6618,0.068060
1455.5254,0.067063
1457.3891,0.074096
1459.2528,0.080452
1461.1164,0.080135
1462.9801,0.080882
1464.8438,0.082470
1466.7074,0.080552
1468.5711,0.076450
1470.4348,0.074129
1472.2984,0.075184
1474.1621,0.077181
1476.0258,0.076144
1477.8895,0.075187
1479.7531,0.074873
1481.6168,0.076414
1483.4805,0.078513
1485.3441,0.079546
1487.2078,0.081197
1489.0715,0.084290
1490.9351,0.086894
1492.7988,0.085624
1494.6625,0.084512
1496.5261,0.087234
1498.3898,0.090048
1500.2535,0.088610
1502.1171,0.085037
1503.9808,0.081044
1505.8445,0.080017
1507.7082,0.084265
1509.5718,0.080720
1511.4355,0.076694
1513.2992,0.074261
1515.1628,0.072600
1517.0265,0.072880
1518.8902,0.073362
1520.7538,0.074689
1522.6175,0.080049
1524.4812,0.081583
1526.3448,0.083022
1528.2085,0.084131
1530.0722,0.082163
1531.9359,0.080400
1533.7995,0.080480
1535.6632,0.078483
1537.5269,0.075054
1539.3905,0.076489
1541.2542,0.084647
1543.1179,0.085734
1544.9815,0.085931
1546.8452,0.085258
1548.7089,0.083952
1550.5725,0.084075
1552.4362,0.083497
1554.2999,0.082531
1556.1635,0.082162
1558.0272,0.085054
1559.8909,0.099034
1561.7546,0.096149
1563.6182,0.092805
1565.4819,0.093982
1567.3456,0.095899
1569.2092,0.099462
1571.0729,0.104458
1572.9366,0.104451
1574.8002,0.106051
1576.6639,0.113925
1578.5276,0.117975
1580.3912,0.117585
1582.2549,0.119216
1584.1186,0.121401
1585.9822,0.123062
1587.8459,0.124499
1589.7096,0.126103
1591.5733,0.127615
1593.4369,0.129029
1595.3006,0.130097
1597.1643,0.129966
1599.0279,0.128562
1600.8916,0.126553
1602.7553,0.124175
1604.6189,0.121250
1606.4826,0.118227
1608.3463,0.116119
1610.2099,0.114602
1612.0736,0.112784
1613.9373,0.111280
1615.8010,0.111379
1617.6646,0.112607
1619.5283,0.110101
1621.3920,0.107185
1623.2556,0.105328
1625.1193,0.101602
1626.9830,0.096439
1628.8466,0.090495
1630.7103,0.083219
1632.5740,0.076080
1634.4376,0.070062
1636.3013,0.065766
1638.1650,0.062377
1640.0286,0.059588
1641.8923,0.057305
1643.7560,0.054960
1645.6197,0.052963
1647.4833,0.051646
1649.3470,0.049188
1651.2107,0.047195
1653.0743,0.049672
1654.9380,0.053516
1656.8017,0.051104
1658.6653,0.050041
1660.5290,0.049714
1662.3927,0.049641
1664.2563,0.049495
1666.1200,0.048027
1667.9837,0.046603
1669.8474,0.046690
1671.7110,0.046749
1673.5747,0.046246
1675.4384,0.047678
1677.3020,0.049821
1679.1657,0.049833
1681.0294,0.050577
1682.8930,0.052115
1684.7567,0.056742
1686.6204,0.058495
1688.4840,0.056546
1690.3477,0.055334
1692.2114,0.053375
1694.0750,0.051009
1695.9387,0.048865
1697.8024,0.046765
1699.6661,0.044374
1701.5297,0.042141
1703.3934,0.038409
1705.2571,0.034495
1707.1207,0.030496
1708.9844,0.027134
1710.8481,0.024349
1712.7117,0.021927
1714.5754,0.020039
1716.4391,0.018975
1718.3027,0.018834
1720.1664,0.018806
1722.0301,0.017830
1723.8937,0.016930
1725.7574,0.015950
1727.6211,0.014860
1729.4848,0.013692
1731.3484,0.012766
1733.2121,0.011908
1735.0758,0.012275
1736.9394,0.012311
1738.8031,0.011610
1740.6668,0.011752
1742.5304,0.011544
1744.3941,0.011240
1746.2578,0.011051
1748.1214,0.010775
1749.9851,0.010834
1751.8488,0.011356
1753.7125,0.011528
1755.5761,0.010974
1757.4398,0.010801
1759.3035,0.010709
1761.1671,0.010349
1763.0308,0.010350
1764.8945,0.010019
1766.7581,0.009375
1768.6218,0.009051
1770.4855,0.008742
1772.3491,0.008733
1774.2128,0.009542
1776.0765,0.009364
1777.9401,0.009176
1779.8038,0.008882
1781.6675,0.008978
1783.5312,0.009057
1785.3948,0.009098
1787.2585,0.009148
1789.1222,0.008921
1790.9858,0.008361
1792.8495,0.008523
1794.7132,0.008986
1796.5768,0.008777
1798.4405,0.008661
1800.3042,0.008736
1802.1678,0.008911
1804.0315,0.009024
1805.8952,0.008943
1807.7589,0.008863
1809.6225,0.008897
1811.4862,0.009068
1813.3499,0.009139
1815.2135,0.008898
1817.0772,0.008764
1818.9409,0.008738
1820.8045,0.008699
1822.6682,0.008638
1824.5319,0.008397
1826.3955,0.008387
1828.2592,0.008105
1830.1229,0.008140
1831.9865,0.008617
1833.8502,0.008517
1835.7139,0.008450
1837.5776,0.008337
1839.4412,0.008443
1841.3049,0.008541
1843.1686,0.008283
1845.0322,0.008110
1846.8959,0.008326
1848.7596,0.008436
1850.6232,0.008457
1852.4869,0.008476
1854.3506,0.008645
1856.2142,0.008450
1858.0779,0.008441
1859.9416,0.008479
1861.8052,0.008442
1863.6689,0.008451
1865.5326,0.008365
1867.3963,0.007830
1869.2599,0.007646
1871.1236,0.007958
1872.9873,0.008095
1874.8509,0.008169
1876.7146,0.008155
1878.5783,0.008066
1880.4419,0.007842
1882.3056,0.007884
1884.1693,0.008235
1886.0329,0.008275
1887.8966,0.008121
1889.7603,0.007793
1891.6240,0.007507
1893.4876,0.007294
1895.3513,0.007575
1897.2150,0.007930
1899.0786,0.007908
1900.9423,0.007835
1902.8060,0.008208
1904.6696,0.008285
1906.5333,0.008092
1908.3970,0.007935
1910.2606,0.007804
1912.1243,0.007664
1913.9880,0.007656
1915.8516,0.007800
1917.7153,0.007864
1919.5790,0.007617
1921.4427,0.007126
1923.3063,0.007098
1925.1700,0.007498
1927.0337,0.007492
1928.8973,0.007102
1930.7610,0.006984
1932.6247,0.007733
1934.4883,0.008310
1936.3520,0.008141
1938.2157,0.007816
1940.0793,0.007445
1941.9430,0.006753
1943.8067,0.006031
1945.6704,0.006001
1947.5340,0.006166
1949.3977,0.005603
1951.2614,0.005438
1953.1250,0.005974
1954.9887,0.006066
1956.8524,0.004872
1958.7160,0.004152
1960.5797,0.004012
1962.4434,0.002901
1964.3070,0.002410
1966.1707,0.002615
1968.0344,0.001809
1969.8980,0.000420
1971.7617,0.000558
1973.6254,0.001097
1975.4891,0.001255
1977.3527,0.001276
1979.2164,0.001716
1981.0801,0.002092
1982.9437,0.002653
1984.8074,0.003807
1986.6711,0.004003
1988.5347,0.003679
1990.3984,0.003342
1992.2621,0.002482
1994.1257,0.002319
1995.9894,0.003076
1997.8531,0.003873
1999.7167,0.003650
2001.5804,0.003191
2003.4441,0.002657
2005.3078,0.001128
2007.1714,0.000044
2009.0351,0.000609
2010.8988,0.000787
2012.7624,0.000330
2014.6261,0.001091
2016.4898,0.001688
2018.3534,-0.000069
2020.2171,-0.001307
2022.0808,-0.000207
2023.9444,0.000437
2025.8081,0.000561
2027.6718,0.001114
2029.5355,0.000980
2031.3991,0.000212
2033.2628,-0.000492
2035.1265,-0.000430
2036.9901,0.000850
2038.8538,0.001882
2040.7175,0.002408
2042.5811,0.002931
2044.4448,0.002333
2046.3085,0.002548
2048.1721,0.004060
2050.0358,0.005520
2051.8995,0.005860
2053.7631,0.006024
2055.6268,0.006904
2057.4905,0.006962
2059.3542,0.006771
2061.2178,0.007050
2063.0815,0.007141
2064.9452,0.007144
2066.8088,0.007082
2068.6725,0.007141
2070.5362,0.008201
2072.3998,0.009481
2074.2635,0.009502
2076.1272,0.009172
2077.9908,0.009096
2079.8545,0.009108
2081.7182,0.009461
2083.5819,0.009541
2085.4455,0.009652
2087.3092,0.009693
2089.1729,0.009279
2091.0365,0.009400
2092.9002,0.009425
2094.7639,0.009605
2096.6275,0.010042
2098.4912,0.009548
2100.3549,0.009070
2102.2185,0.009540
2104.0822,0.010246
2105.9459,0.010148
2107.8095,0.010062
2109.6732,0.010087
2111.5369,0.009901
2113.4006,0.010051
2115.2642,0.010196
2117.1279,0.009634
2118.9916,0.009242
2120.8552,0.009281
2122.7189,0.009301
2124.5826,0.009027
2126.4462,0.008831
2128.3099,0.008675
2130.1736,0.008744
2132.0372,0.008074
2133.9009,0.006533
2135.7646,0.006101
2137.6282,0.006051
2139.4919,0.005872
2141.3556,0.005929
2143.2193,0.005151
2145.0829,0.004563
2146.9466,0.004030
2148.8103,0.003419
2150.6739,0.002660
2152.5376,0.002275
2154.4013,0.000969
2156.2649,-0.001062
2158.1286,-0.001178
2159.9923,-0.000498
2161.8559,0.000545
2163.7196,0.000669
2165.5833,0.001296
2167.4470,0.002374
2169.3106,0.003064
2171.1743,0.002301
2173.0380,0.001862
2174.9016,0.002692
2176.7653,0.003465
2178.6290,0.003588
2180.4926,0.003434
2182.3563,0.003466
2184.2200,0.003936
2186.0836,0.004727
2187.9473,0.005078
2189.8110,0.005039
2191.6746,0.005455
2193.5383,0.005797
2195.4020,0.005845
2197.2657,0.005223
2199.1293,0.004727
2200.9930,0.004189
2202.8567,0.004106
2204.7203,0.005456
2206.5840,0.006216
2208.4477,0.006241
2210.3113,0.006581
2212.1750,0.007472
2214.0387,0.007378
2215.9023,0.006841
2217.7660,0.007258
2219.6297,0.007774
2221.4934,0.007494
2223.3570,0.007546
2225.2207,0.008127
2227.0844,0.008274
2228.9480,0.008296
2230.8117,0.008563
2232.6754,0.009133
2234.5390,0.009254
2236.4027,0.008495
2238.2664,0.008735
2240.1300,0.009373
2241.9937,0.009564
2243.8574,0.010307
2245.7210,0.010669
2247.5847,0.010252
2249.4484,0.010166
2251.3121,0.010184
2253.1757,0.010154
2255.0394,0.010720
2256.9031,0.011416
2258.7667,0.011100
2260.6304,0.010728
2262.4941,0.010626
2264.3577,0.010857
2266.2214,0.011488
2268.0851,0.012082
2269.9487,0.012045
2271.8124,0.012329
2273.6761,0.012567
2275.5397,0.013088
2277.4034,0.013225
2279.2671,0.013196
2281.1308,0.013738
2282.9944,0.014109
2284.8581,0.014193
2286.7218,0.014340
2288.5854,0.014384
2290.4491,0.014276
2292.3128,0.014022
2294.1764,0.014156
2296.0401,0.014502
2297.9038,0.014720
2299.7674,0.014624
2301.6311,0.014667
2303.4948,0.015021
2305.3585,0.014997
2307.2221,0.014750
2309.0858,0.014889
2310.9495,0.015105
2312.8131,0.015084
2314.6768,0.015168
2316.5405,0.015251
2318.4041,0.015307
2320.2678,0.015543
2322.1315,0.015735
2323.9951,0.015877
2325.8588,0.015634
2327.7225,0.015051
2329.5861,0.014693
2331.4498,0.014888
2333.3135,0.015008
2335.1772,0.014954
2337.0408,0.015082
2338.9045,0.015304
2340.7682,0.015315
2342.6318,0.015282
2344.4955,0.015313
2346.3592,0.015488
2348.2228,0.015463
2350.0865,0.015005
2351.9502,0.014614
2353.8138,0.014767
2355.6775,0.015010
2357.5412,0.015272
2359.4049,0.015243
2361.2685,0.015032
2363.1322,0.014986
2364.9959,0.014866
2366.8595,0.014664
2368.7232,0.015369
2370.5869,0.016055
2372.4505,0.016022
2374.3142,0.015880
2376.1779,0.015963
2378.0415,0.016248
2379.9052,0.016449
2381.7689,0.016202
2383.6325,0.015970
2385.4962,0.016030
2387.3599,0.016185
2389.2236,0.016237
2391.0872,0.016318
2392.9509,0.016304
2394.8146,0.016497
2396.6782,0.016444
2398.5419,0.016480
2400.4056,0.016419
2402.2692,0.016294
2404.1329,0.016428
2405.9966,0.016749
2407.8602,0.016716
2409.7239,0.016643
2411.5876,0.017081
2413.4512,0.017115
2415.3149,0.017254
2417.1786,0.017603
2419.0423,0.017663
2420.9059,0.017406
2422.7696,0.017203
2424.6333,0.017588
2426.4969,0.017863
2428.3606,0.017730
2430.2243,0.017942
2432.0879,0.018166
2433.9516,0.017966
2435.8153,0.018011
2437.6789,0.018141
2439.5426,0.018061
2441.4063,0.017976
2443.2700,0.018386
2445.1336,0.018332
2446.9973,0.017771
2448.8610,0.017911
2450.7246,0.018359
2452.5883,0.018737
2454.4520,0.019003
2456.3156,0.018755
2458.1793,0.018945
2460.0430,0.019035
2461.9066,0.019161
2463.7703,0.019441
2465.6340,0.019390
2467.4976,0.019276
2469.3613,0.019292
2471.2250,0.019327
2473.0887,0.019714
2474.9523,0.019874
2476.8160,0.020155
2478.6797,0.020356
2480.5433,0.020623
2482.4070,0.020956
2484.2707,0.020997
2486.1343,0.020637
2487.9980,0.020438
2489.8617,0.021036
2491.7253,0.021316
2493.5890,0.020871
2495.4527,0.021028
2497.3164,0.021174
2499.1800,0.020983
2501.0437,0.021136
2502.9074,0.021198
2504.7710,0.021244
2506.6347,0.021760
2508.4984,0.021807
2510.3620,0.021363
2512.2257,0.021200
2514.0894,0.021674
2515.9530,0.022068
2517.8167,0.022029
2519.6804,0.022007
2521.5440,0.022547
2523.4077,0.022940
2525.2714,0.022623
