Wavenumber,Intensity
650.4205,0.145572
652.2841,0.144853
654.1478,0.147748
656.0115,0.151017
657.8751,0.155424
659.7388,0.158922
661.6025,0.164232
663.4661,0.171258
665.3298,0.175877
667.1935,0.179874
669.0571,0.182063
670.9208,0.173961
672.7845,0.166928
674.6481,0.160669
676.5118,0.155035
678.3755,0.150475
680.2392,0.148957
682.1028,0.147342
683.9665,0.144908
685.8302,0.142888
687.6938,0.141170
689.5575,0.139190
691.4212,0.138867
693.2848,0.137580
695.1485,0.135904
697.0122,0.134199
698.8758,0.133767
700.7395,0.134378
702.6032,0.135385
704.4669,0.135193
706.3305,0.133671
708.1942,0.130856
710.0579,0.128597
711.9215,0.126584
713.7852,0.124933
715.6489,0.123932
717.5125,0.123678
719.3762,0.124095
721.2399,0.125230
723.1035,0.126470
724.9672,0.128446
726.8309,0.130602
728.6945,0.131752
730.5582,0.133168
732.4219,0.135768
734.2856,0.135506
736.1492,0.129078
738.0129,0.119101
739.8766,0.110212
741.7402,0.102705
743.6039,0.095876
745.4676,0.087432
747.3312,0.077749
749.1949,0.070006
751.0586,0.066041
752.9222,0.064165
754.7859,0.063400
756.6496,0.063383
758.5132,0.063511
760.3769,0.063701
762.2406,0.063529
764.1043,0.063068
765.9679,0.063167
767.8316,0.063462
769.6953,0.064133
771.5589,0.064855
773.4226,0.065612
775.2863,0.066064
777.1499,0.066655
779.0136,0.068117
780.8773,0.069853
782.7409,0.070873
784.6046,0.071560
786.4683,0.072672
788.3320,0.074225
790.1956,0.075497
792.0593,0.076896
793.9230,0.078507
795.7866,0.080041
797.6503,0.081433
799.5140,0.082765
801.3776,0.083753
803.2413,0.084401
805.1050,0.084639
806.9686,0.084819
808.8323,0.084357
810.6960,0.083539
812.5596,0.082981
814.4233,0.082045
816.2870,0.080961
818.1507,0.080180
820.0143,0.079488
821.8780,0.079301
823.7417,0.079707
825.6053,0.080629
827.4690,0.082512
829.3327,0.084335
831.1963,0.083161
833.0600,0.078583
834.9237,0.074437
836.7873,0.072877
838.6510,0.072815
840.5147,0.073885
842.3784,0.076332
844.2420,0.080591
846.1057,0.085003
847.9694,0.083892
849.8330,0.077003
851.6967,0.071549
853.5604,0.069987
855.4240,0.070483
857.2877,0.071463
859.1514,0.072337
861.0150,0.073185
862.8787,0.074003
864.7424,0.074936
866.6060,0.075853
868.4697,0.076620
870.3334,0.077671
872.1971,0.079009
874.0607,0.080409
875.9244,0.081967
877.7881,0.084046
879.6517,0.086156
881.5154,0.088610
883.3791,0.091890
885.2427,0.095991
887.1064,0.101010
888.9701,0.106735
890.8337,0.111512
892.6974,0.111970
894.5611,0.105625
896.4247,0.096514
898.2884,0.090758
900.1521,0.089678
902.0158,0.091197
903.8794,0.093984
905.7431,0.097257
907.6068,0.100888
909.4704,0.104816
911.3341,0.109305
913.1978,0.114585
915.0614,0.118205
916.9251,0.115854
918.7888,0.109292
920.6524,0.104242
922.5161,0.102745
924.3798,0.103299
926.2435,0.104609
928.1071,0.106227
929.9708,0.108085
931.8345,0.110003
933.6981,0.111896
935.5618,0.113865
937.4255,0.115817
939.2891,0.117601
941.1528,0.119563
943.0165,0.121887
944.8801,0.124570
946.7438,0.127423
948.6075,0.130391
950.4711,0.133791
952.3348,0.137738
954.1985,0.142088
956.0622,0.146752
957.9258,0.151026
959.7895,0.153563
961.6532,0.153049
963.5168,0.150012
965.3805,0.146598
967.2442,0.145170
969.1078,0.146297
970.9715,0.149156
972.8352,0.153137
974.6988,0.158780
976.5625,0.166635
978.4262,0.177775
980.2899,0.191517
982.1535,0.197751
984.0172,0.186579
985.8809,0.171587
987.7445,0.166631
989.6082,0.168342
991.4719,0.171460
993.3355,0.174920
995.1992,0.178106
997.0629,0.181186
998.9265,0.184326
1000.7902,0.187430
1002.6539,0.190541
1004.5175,0.193825
1006.3812,0.197101
1008.2449,0.200181
1010.1086,0.202578
1011.9722,0.204215
1013.8359,0.205211
1015.6996,0.205673
1017.5632,0.205215
1019.4269,0.203676
1021.2906,0.201826
1023.1542,0.200293
1025.0179,0.198756
1026.8816,0.197697
1028.7452,0.197174
1030.6089,0.196556
1032.4726,0.195428
1034.3362,0.192643
1036.1999,0.185370
1038.0636,0.173644
1039.9273,0.161959
1041.7909,0.154651
1043.6546,0.151957
1045.5183,0.149446
1047.3819,0.143171
1049.2456,0.133873
1051.1093,0.123655
1052.9729,0.114506
1054.8366,0.108054
1056.7003,0.104747
1058.5639,0.103762
1060.4276,0.103891
1062.2913,0.104476
1064.1550,0.105403
1066.0186,0.106624
1067.8823,0.108200
1069.7460,0.110160
1071.6096,0.112402
1073.4733,0.114552
1075.3370,0.116569
1077.2006,0.118515
1079.0643,0.120402
1080.9280,0.122288
1082.7916,0.124402
1084.6553,0.126712
1086.5190,0.129114
1088.3826,0.131923
1090.2463,0.135347
1092.1100,0.139086
1093.9737,0.142996
1095.8373,0.146665
1097.7010,0.149595
1099.5647,0.151373
1101.4283,0.151850
1103.2920,0.151323
1105.1557,0.150491
1107.0193,0.149249
1108.8830,0.146063
1110.7467,0.139636
1112.6103,0.130347
1114.4740,0.119808
1116.3377,0.109867
1118.2014,0.101576
1120.0650,0.095447
1121.9287,0.091364
1123.7924,0.088859
1125.6560,0.087291
1127.5197,0.086235
1129.3834,0.085488
1131.2470,0.084929
1133.1107,0.084670
1134.9744,0.084787
1136.8380,0.085059
1138.7017,0.085603
1140.5654,0.086491
1142.4290,0.087543
1144.2927,0.088697
1146.1564,0.089892
1148.0201,0.091047
1149.8837,0.092190
1151.7474,0.093327
1153.6111,0.094460
1155.4747,0.095586
1157.3384,0.096862
1159.2021,0.098243
1161.0657,0.099499
1162.9294,0.100788
1164.7931,0.102468
1166.6567,0.104627
1168.5204,0.107091
1170.3841,0.109380
1172.2477,0.110716
1174.1114,0.110331
1175.9751,0.108269
1177.8388,0.105413
1179.7024,0.102822
1181.5661,0.100964
1183.4298,0.099642
1185.2934,0.098560
1187.1571,0.097518
1189.0208,0.096443
1190.8844,0.095450
1192.7481,0.094545
1194.6118,0.093823
1196.4754,0.093437
1198.3391,0.093501
1200.2028,0.093885
1202.0665,0.094276
1203.9301,0.094290
1205.7938,0.093661
1207.6575,0.092497
1209.5211,0.091182
1211.3848,0.089732
1213.2485,0.087966
1215.1121,0.085809
1216.9758,0.083293
1218.8395,0.080461
1220.7031,0.077422
1222.5668,0.074373
1224.4305,0.071539
1226.2941,0.068911
1228.1578,0.066340
1230.0215,0.063810
1231.8852,0.061237
1233.7488,0.058404
1235.6125,0.055519
1237.4762,0.053006
1239.3398,0.051155
1241.2035,0.050422
1243.0672,0.051031
1244.9308,0.052484
1246.7945,0.053760
1248.6582,0.054178
1250.5218,0.053430
1252.3855,0.051311
1254.2492,0.048580
1256.1129,0.046568
1257.9765,0.045719
1259.8402,0.045563
1261.7039,0.045636
1263.5675,0.045882
1265.4312,0.046178
1267.2949,0.046271
1269.1585,0.046096
1271.0222,0.045940
1272.8859,0.045891
1274.7495,0.045885
1276.6132,0.046113
1278.4769,0.046549
1280.3405,0.047088
1282.2042,0.047853
1284.0679,0.048874
1285.9316,0.050083
1287.7952,0.051602
1289.6589,0.053517
1291.5226,0.055938
1293.3862,0.059106
1295.2499,0.063215
1297.1136,0.068609
1298.9772,0.075264
1300.8409,0.082146
1302.7046,0.087225
1304.5682,0.088017
1306.4319,0.083634
1308.2956,0.074641
1310.1592,0.062691
1312.0229,0.051369
1313.8866,0.043909
1315.7503,0.040894
1317.6139,0.040560
1319.4776,0.041289
1321.3413,0.042213
1323.2049,0.043344
1325.0686,0.044682
1326.9323,0.045934
1328.7959,0.047112
1330.6596,0.048293
1332.5233,0.049334
1334.3869,0.050115
1336.2506,0.051045
1338.1143,0.052864
1339.9780,0.055675
1341.8416,0.057958
1343.7053,0.058624
1345.5690,0.057362
1347.4326,0.055094
1349.2963,0.053780
1351.1600,0.053627
1353.0236,0.054118
1354.8873,0.055029
1356.7510,0.055899
1358.6146,0.056673
1360.4783,0.057934
1362.3420,0.060084
1364.2056,0.061834
1366.0693,0.062756
1367.9330,0.064221
1369.7967,0.065916
1371.6603,0.067444
1373.5240,0.069982
1375.3877,0.072860
1377.2513,0.074880
1379.1150,0.077505
1380.9787,0.081195
1382.8423,0.085776
1384.7060,0.091614
1386.5697,0.098648
1388.4333,0.102909
1390.2970,0.101550
1392.1607,0.100066
1394.0244,0.099790
1395.8880,0.097993
1397.7517,0.094474
1399.6154,0.090219
1401.4790,0.085946
1403.3427,0.082457
1405.2064,0.077184
1407.0700,0.069192
1408.9337,0.060935
1410.7974,0.053413
1412.6610,0.048098
1414.5247,0.045743
1416.3884,0.046206
1418.2520,0.050055
1420.1157,0.056355
1421.9794,0.059472
1423.8431,0.059538
1425.7067,0.055638
1427.5704,0.049979
1429.4341,0.045287
1431.2977,0.041911
1433.1614,0.040287
1435.0251,0.040404
1436.8887,0.042169
1438.7524,0.043137
1440.6161,0.043494
1442.4797,0.044472
1444.3434,0.045433
1446.2071,0.046433
1448.0707,0.047470
1449.9344,0.047558
1451.7981,0.047024
1453.6618,0.046894
1455.5254,0.048744
1457.3891,0.053062
1459.2528,0.050692
1461.1164,0.046038
1462.9801,0.044061
1464.8438,0.044075
1466.7074,0.043752
1468.5711,0.042734
1470.4348,0.042405
1472.2984,0.043406
1474.1621,0.044140
1476.0258,0.043996
1477.8895,0.044161
1479.7531,0.044372
1481.6168,0.045004
1483.4805,0.045542
1485.3441,0.045963
1487.2078,0.047314
1489.0715,0.049980
1490.9351,0.052257
1492.7988,0.052391
1494.6625,0.053013
1496.5261,0.055925
1498.3898,0.059126
1500.2535,0.060299
1502.1171,0.060444
1503.9808,0.060734
1505.8445,0.063349
1507.7082,0.068729
1509.5718,0.067434
1511.4355,0.065336
1513.2992,0.063525
1515.1628,0.061838
1517.0265,0.060316
1518.8902,0.058897
1520.7538,0.059360
1522.6175,0.060566
1524.4812,0.060119
1526.3448,0.059846
1528.2085,0.058662
1530.0722,0.056923
1531.9359,0.056509
1533.7995,0.056937
1535.6632,0.056021
1537.5269,0.055750
1539.3905,0.058398
1541.2542,0.061793
1543.1179,0.061860
1544.9815,0.062542
1546.8452,0.063032
1548.7089,0.063841
1550.5725,0.065495
1552.4362,0.066637
1554.2999,0.067565
1556.1635,0.069061
1558.0272,0.073465
1559.8909,0.081665
1561.7546,0.079371
1563.6182,0.078776
1565.4819,0.080730
1567.3456,0.083086
1569.2092,0.086640
1571.0729,0.089641
1572.9366,0.089969
1574.8002,0.092485
1576.6639,0.097720
1578.5276,0.099547
1580.3912,0.099747
1582.2549,0.100890
1584.1186,0.101839
1585.9822,0.102258
1587.8459,0.101923
1589.7096,0.100983
1591.5733,0.099795
1593.4369,0.098806
1595.3006,0.098154
1597.1643,0.097623
1599.0279,0.097142
1600.8916,0.096960
1602.7553,0.097115
1604.6189,0.097454
1606.4826,0.098203
1608.3463,0.099394
1610.2099,0.099964
1612.0736,0.099227
1613.9373,0.097566
1615.8010,0.095051
1617.6646,0.089120
1619.5283,0.082409
1621.3920,0.077561
1623.2556,0.072190
1625.1193,0.066773
1626.9830,0.062706
1628.8466,0.057840
1630.7103,0.052760
1632.5740,0.048972
1634.4376,0.045390
1636.3013,0.040751
1638.1650,0.037817
1640.0286,0.037031
1641.8923,0.036247
1643.7560,0.036007
1645.6197,0.036758
1647.4833,0.037947
1649.3470,0.038324
1651.2107,0.039429
1653.0743,0.042731
1654.9380,0.044628
1656.8017,0.043990
1658.6653,0.044408
1660.5290,0.045043
1662.3927,0.045491
1664.2563,0.044976
1666.1200,0.044065
1667.9837,0.043620
1669.8474,0.043392
1671.7110,0.042824
1673.5747,0.042986
1675.4384,0.044424
1677.3020,0.045635
1679.1657,0.046479
1681.0294,0.048314
1682.8930,0.050773
1684.7567,0.054290
1686.6204,0.054795
1688.4840,0.054076
1690.3477,0.053452
1692.2114,0.052109
1694.0750,0.050737
1695.9387,0.049000
1697.8024,0.046476
1699.6661,0.044992
1701.5297,0.041514
1703.3934,0.038058
1705.2571,0.034809
1707.1207,0.030459
1708.9844,0.027240
1710.8481,0.024707
1712.7117,0.022627
1714.5754,0.021401
1716.4391,0.020647
1718.3027,0.019928
1720.1664,0.018906
1722.0301,0.018321
1723.8937,0.017702
1725.7574,0.016774
1727.6211,0.015817
1729.4848,0.014764
1731.3484,0.013876
1733.2121,0.013678
1735.0758,0.013320
1736.9394,0.012719
1738.8031,0.012542
1740.6668,0.012391
1742.5304,0.012198
1744.3941,0.012212
1746.2578,0.011908
1748.1214,0.011467
1749.9851,0.011376
1751.8488,0.011402
1753.7125,0.011218
1755.5761,0.011263
1757.4398,0.011341
1759.3035,0.011299
1761.1671,0.011332
1763.0308,0.011305
1764.8945,0.011113
1766.7581,0.011129
1768.6218,0.011039
1770.4855,0.011000
1772.3491,0.011077
1774.2128,0.010818
1776.0765,0.010743
1777.9401,0.010969
1779.8038,0.011031
1781.6675,0.011041
1783.5312,0.011156
1785.3948,0.011282
1787.2585,0.011077
1789.1222,0.011054
1790.9858,0.011271
1792.8495,0.011235
1794.7132,0.011034
1796.5768,0.011163
1798.4405,0.011220
1800.3042,0.011333
1802.1678,0.011467
1804.0315,0.011481
1805.8952,0.011388
1807.7589,0.011342
1809.6225,0.011261
1811.4862,0.011288
1813.3499,0.011328
1815.2135,0.011334
1817.0772,0.011300
1818.9409,0.011335
1820.8045,0.011344
1822.6682,0.011403
1824.5319,0.011471
1826.3955,0.011522
1828.2592,0.011567
1830.1229,0.011489
1831.9865,0.011142
1833.8502,0.011155
1835.7139,0.011369
1837.5776,0.011216
1839.4412,0.010867
1841.3049,0.010968
1843.1686,0.011192
1845.0322,0.011294
1846.8959,0.011161
1848.7596,0.011036
1850.6232,0.011101
1852.4869,0.011190
1854.3506,0.011106
1856.2142,0.010972
1858.0779,0.011021
1859.9416,0.010864
1861.8052,0.010545
1863.6689,0.010550
1865.5326,0.010798
1867.3963,0.011201
1869.2599,0.011116
1871.1236,0.010707
1872.9873,0.010870
1874.8509,0.011224
1876.7146,0.011321
1878.5783,0.011360
1880.4419,0.011153
1882.3056,0.010979
1884.1693,0.011104
1886.0329,0.011145
1887.8966,0.010994
1889.7603,0.010738
1891.6240,0.010694
1893.4876,0.011080
1895.3513,0.011371
1897.2150,0.011641
1899.0786,0.011653
1900.9423,0.011213
1902.8060,0.011016
1904.6696,0.011208
1906.5333,0.011409
1908.3970,0.011456
1910.2606,0.011072
1912.1243,0.010975
1913.9880,0.011421
1915.8516,0.011399
1917.7153,0.011185
1919.5790,0.010958
1921.4427,0.010817
1923.3063,0.010984
1925.1700,0.010594
1927.0337,0.010324
1928.8973,0.010477
1930.7610,0.010643
1932.6247,0.010160
1934.4883,0.010003
1936.3520,0.010043
1938.2157,0.009902
1940.0793,0.009587
1941.9430,0.008825
1943.8067,0.008172
1945.6704,0.008329
1947.5340,0.007806
1949.3977,0.007645
1951.2614,0.007444
1953.1250,0.007049
1954.9887,0.007036
1956.8524,0.006793
1958.7160,0.005987
1960.5797,0.005319
1962.4434,0.004874
1964.3070,0.004941
1966.1707,0.003992
1968.0344,0.003116
1969.8980,0.002702
1971.7617,0.003294
1973.6254,0.003540
1975.4891,0.002857
1977.3527,0.002384
1979.2164,0.002947
1981.0801,0.003641
1982.9437,0.004943
1984.8074,0.005246
1986.6711,0.004987
1988.5347,0.005305
1990.3984,0.005761
1992.2621,0.005348
1994.1257,0.003812
1995.9894,0.004161
1997.8531,0.005579
1999.7167,0.005581
2001.5804,0.005181
2003.4441,0.004237
2005.3078,0.003336
2007.1714,0.002256
2009.0351,0.002265
2010.8988,0.002394
2012.7624,0.002641
2014.6261,0.002906
2016.4898,0.002510
2018.3534,0.002158
2020.2171,0.001774
2022.0808,0.001010
2023.9444,0.001138
2025.8081,0.002152
2027.6718,0.002321
2029.5355,0.000996
2031.3991,0.001890
2033.2628,0.002924
2035.1265,0.002488
2036.9901,0.001836
2038.8538,0.002116
2040.7175,0.002639
2042.5811,0.003748
2044.4448,0.004298
2046.3085,0.004583
2048.1721,0.004945
2050.0358,0.005631
2051.8995,0.006196
2053.7631,0.006565
2055.6268,0.006656
2057.4905,0.007035
2059.3542,0.007479
2061.2178,0.008026
2063.0815,0.008550
2064.9452,0.008873
2066.8088,0.008454
2068.6725,0.008437
2070.5362,0.009135
2072.3998,0.009485
2074.2635,0.008936
2076.1272,0.008610
2077.9908,0.008946
2079.8545,0.009339
2081.7182,0.010092
2083.5819,0.010597
2085.4455,0.010170
2087.3092,0.010166
2089.1729,0.010537
2091.0365,0.010556
2092.9002,0.009622
2094.7639,0.009332
2096.6275,0.009768
2098.4912,0.010080
2100.3549,0.010194
2102.2185,0.009936
2104.0822,0.010155
2105.9459,0.010553
2107.8095,0.010383
2109.6732,0.010131
2111.5369,0.010437
2113.4006,0.010928
2115.2642,0.011041
2117.1279,0.010956
2118.9916,0.010375
2120.8552,0.010041
2122.7189,0.010649
2124.5826,0.010800
2126.4462,0.009976
2128.3099,0.009667
2130.1736,0.009480
2132.0372,0.008485
2133.9009,0.007957
2135.7646,0.008445
2137.6282,0.008526
2139.4919,0.007892
2141.3556,0.006923
2143.2193,0.007121
2145.0829,0.007049
2146.9466,0.006206
2148.8103,0.005877
2150.6739,0.005046
2152.5376,0.002957
2154.4013,0.002139
2156.2649,0.002103
2158.1286,0.001714
2159.9923,0.002155
2161.8559,0.002607
2163.7196,0.001913
2165.5833,0.003363
2167.4470,0.004313
2169.3106,0.004103
2171.1743,0.005131
2173.0380,0.006520
2174.9016,0.005706
2176.7653,0.005042
2178.6290,0.004875
2180.4926,0.004429
2182.3563,0.004675
2184.2200,0.005755
2186.0836,0.005252
2187.9473,0.004779
2189.8110,0.006203
2191.6746,0.006434
2193.5383,0.006646
2195.4020,0.006961
2197.2657,0.007300
2199.1293,0.008034
2200.9930,0.007809
2202.8567,0.008063
2204.7203,0.007841
2206.5840,0.007600
2208.4477,0.008521
2210.3113,0.010152
2212.1750,0.009471
2214.0387,0.008385
2215.9023,0.008573
2217.7660,0.008719
2219.6297,0.008961
2221.4934,0.009240
2223.3570,0.009934
2225.2207,0.010434
2227.0844,0.009920
2228.9480,0.010344
2230.8117,0.010821
2232.6754,0.011002
2234.5390,0.010906
2236.4027,0.010698
2238.2664,0.010588
2240.1300,0.011436
2241.9937,0.012145
2243.8574,0.012291
2245.7210,0.012010
2247.5847,0.011958
2249.4484,0.011762
2251.3121,0.011948
2253.1757,0.012509
2255.0394,0.012566
2256.9031,0.013029
2258.7667,0.013665
2260.6304,0.013684
2262.4941,0.013200
2264.3577,0.013077
2266.2214,0.013458
2268.0851,0.013716
2269.9487,0.013938
2271.8124,0.014313
2273.6761,0.014484
2275.5397,0.014435
2277.4034,0.014468
2279.2671,0.014772
2281.1308,0.014948
2282.9944,0.015137
2284.8581,0.015420
2286.7218,0.015440
2288.5854,0.015431
2290.4491,0.015552
2292.3128,0.015658
2294.1764,0.016160
2296.0401,0.016319
2297.9038,0.016306
2299.7674,0.016365
2301.6311,0.016238
2303.4948,0.016258
2305.3585,0.016378
2307.2221,0.016493
2309.0858,0.016392
2310.9495,0.016459
2312.8131,0.016248
2314.6768,0.016043
2316.5405,0.016426
2318.4041,0.016728
2320.2678,0.016814
2322.1315,0.016746
2323.9951,0.016912
2325.8588,0.016817
2327.7225,0.016153
2329.5861,0.015701
2331.4498,0.015824
2333.3135,0.015819
2335.1772,0.015672
2337.0408,0.015832
2338.9045,0.016074
2340.7682,0.016320
2342.6318,0.016369
2344.4955,0.016386
2346.3592,0.016392
2348.2228,0.016059
2350.0865,0.015783
2351.9502,0.015981
2353.8138,0.016092
2355.6775,0.016107
2357.5412,0.016134
2359.4049,0.015879
2361.2685,0.015750
2363.1322,0.015802
2364.9959,0.015444
2366.8595,0.015323
2368.7232,0.015502
2370.5869,0.016039
2372.4505,0.016364
2374.3142,0.016494
2376.1779,0.016713
2378.0415,0.016626
2379.9052,0.016557
2381.7689,0.016619
2383.6325,0.016622
2385.4962,0.016653
2387.3599,0.016687
2389.2236,0.016932
2391.0872,0.016953
2392.9509,0.016681
2394.8146,0.016759
2396.6782,0.016874
2398.5419,0.016711
2400.4056,0.016964
2402.2692,0.017330
2404.1329,0.017403
2405.9966,0.017465
2407.8602,0.017350
2409.7239,0.016969
2411.5876,0.017137
2413.4512,0.017472
2415.3149,0.017446
2417.1786,0.017323
2419.0423,0.017341
2420.9059,0.017328
2422.7696,0.017444
2424.6333,0.017668
2426.4969,0.017712
2428.3606,0.017490
2430.2243,0.017235
2432.0879,0.017470
2433.9516,0.017917
2435.8153,0.017899
2437.6789,0.017811
2439.5426,0.017605
2441.4063,0.017500
2443.2700,0.017595
2445.1336,0.017869
2446.9973,0.017985
2448.8610,0.017630
2450.7246,0.017721
2452.5883,0.018160
2454.4520,0.018196
2456.3156,0.018296
2458.1793,0.018289
2460.0430,0.018189
2461.9066,0.018009
2463.7703,0.018204
2465.6340,0.018475
2467.4976,0.018307
2469.3613,0.018538
2471.2250,0.018769
2473.0887,0.018758
2474.9523,0.018718
2476.8160,0.018927
2478.6797,0.018624
2480.5433,0.018397
2482.4070,0.018626
2484.2707,0.018747
2486.1343,0.018909
2487.9980,0.019235
2489.8617,0.019163
2491.7253,0.019053
2493.5890,0.019124
2495.4527,0.019166
2497.3164,0.019019
2499.1800,0.018957
2501.0437,0.019170
2502.9074,0.019161
2504.7710,0.018846
2506.6347,0.018705
2508.4984,0.018854
2510.3620,0.019018
2512.2257,0.019111
2514.0894,0.019530
2515.9530,0.019669
2517.8167,0.019632
2519.6804,0.019773
2521.5440,0.019705
2523.4077,0.019677
2525.2714,0.019952
2527.1351,0.019812
