Wavenumber,Intensity
650.4205,0.159240
652.2841,0.173256
654.1478,0.189828
656.0115,0.206908
657.8751,0.225293
659.7388,0.242238
661.6025,0.261241
663.4661,0.280834
665.3298,0.297218
667.1935,0.308267
669.0571,0.302092
670.9208,0.276059
672.7845,0.252325
674.6481,0.230599
676.5118,0.214101
678.3755,0.203887
680.2392,0.199628
682.1028,0.192291
683.9665,0.177642
685.8302,0.160645
687.6938,0.146474
689.5575,0.135259
691.4212,0.125883
693.2848,0.115264
695.1485,0.104786
697.0122,0.097257
698.8758,0.093592
700.7395,0.091799
702.6032,0.091013
704.4669,0.091428
706.3305,0.091401
708.1942,0.089350
710.0579,0.085967
711.9215,0.082478
713.7852,0.080469
715.6489,0.080351
717.5125,0.081161
719.3762,0.081533
721.2399,0.082826
723.1035,0.085143
724.9672,0.087408
726.8309,0.091279
728.6945,0.096489
730.5582,0.103254
732.4219,0.114069
734.2856,0.131135
736.1492,0.159556
738.0129,0.197496
739.8766,0.231156
741.7402,0.246660
743.6039,0.226091
745.4676,0.163169
747.3312,0.112115
749.1949,0.095155
751.0586,0.089097
752.9222,0.088325
754.7859,0.082109
756.6496,0.067078
758.5132,0.059099
760.3769,0.059312
762.2406,0.063048
764.1043,0.069440
765.9679,0.076411
767.8316,0.077988
769.6953,0.074072
771.5589,0.071967
773.4226,0.073534
775.2863,0.076627
777.1499,0.080233
779.0136,0.083128
780.8773,0.084053
782.7409,0.083482
784.6046,0.083231
786.4683,0.083991
788.3320,0.086137
790.1956,0.088559
792.0593,0.090278
793.9230,0.091874
795.7866,0.094278
797.6503,0.098172
799.5140,0.103186
801.3776,0.107986
803.2413,0.109211
805.1050,0.106634
806.9686,0.103901
808.8323,0.102989
810.6960,0.103497
812.5596,0.104078
814.4233,0.104653
816.2870,0.105608
818.1507,0.107130
820.0143,0.108477
821.8780,0.110338
823.7417,0.112653
825.6053,0.115068
827.4690,0.118284
829.3327,0.122160
831.1963,0.124537
833.0600,0.125155
834.9237,0.126658
836.7873,0.129704
838.6510,0.131667
840.5147,0.132496
842.3784,0.135214
844.2420,0.142402
846.1057,0.152257
847.9694,0.159860
849.8330,0.159750
851.6967,0.154046
853.5604,0.153606
855.4240,0.159862
857.2877,0.163513
859.1514,0.162518
861.0150,0.162733
862.8787,0.166482
864.7424,0.168805
866.6060,0.165474
868.4697,0.160037
870.3334,0.158491
872.1971,0.161207
874.0607,0.165866
875.9244,0.169037
877.7881,0.168643
879.6517,0.167729
881.5154,0.169309
883.3791,0.171586
885.2427,0.173205
887.1064,0.174710
888.9701,0.176697
890.8337,0.178872
892.6974,0.181447
894.5611,0.184261
896.4247,0.187241
898.2884,0.189910
900.1521,0.192904
902.0158,0.196118
903.8794,0.199528
905.7431,0.203509
907.6068,0.208281
909.4704,0.213356
911.3341,0.218972
913.1978,0.225575
915.0614,0.232636
916.9251,0.236737
918.7888,0.236464
920.6524,0.233151
922.5161,0.229451
924.3798,0.227829
926.2435,0.228853
928.1071,0.230133
929.9708,0.230443
931.8345,0.230507
933.6981,0.232214
935.5618,0.235120
937.4255,0.238159
939.2891,0.241277
941.1528,0.244429
943.0165,0.247353
944.8801,0.250421
946.7438,0.253488
948.6075,0.256645
950.4711,0.259984
952.3348,0.263435
954.1985,0.266607
956.0622,0.270172
957.9258,0.273955
959.7895,0.278151
961.6532,0.282429
963.5168,0.286196
965.3805,0.289001
967.2442,0.292321
969.1078,0.296741
970.9715,0.301554
972.8352,0.306260
974.6988,0.311834
976.5625,0.318368
978.4262,0.325983
980.2899,0.333622
982.1535,0.335856
984.0172,0.328792
985.8809,0.321274
987.7445,0.318739
989.6082,0.317947
991.4719,0.317586
993.3355,0.318819
995.1992,0.321018
997.0629,0.323287
998.9265,0.325436
1000.7902,0.327998
1002.6539,0.330910
1004.5175,0.334195
1006.3812,0.334331
1008.2449,0.328582
1010.1086,0.320315
1011.9722,0.312505
1013.8359,0.304294
1015.6996,0.295313
1017.5632,0.284873
1019.4269,0.272843
1021.2906,0.259661
1023.1542,0.246305
1025.0179,0.233297
1026.8816,0.221238
1028.7452,0.209975
1030.6089,0.199577
1032.4726,0.189828
1034.3362,0.180667
1036.1999,0.172129
1038.0636,0.164066
1039.9273,0.156468
1041.7909,0.149353
1043.6546,0.142553
1045.5183,0.136207
1047.3819,0.130426
1049.2456,0.125219
1051.1093,0.120247
1052.9729,0.116007
1054.8366,0.112676
1056.7003,0.110095
1058.5639,0.108570
1060.4276,0.107807
1062.2913,0.106675
1064.1550,0.105669
1066.0186,0.105107
1067.8823,0.103974
1069.7460,0.102879
1071.6096,0.103526
1073.4733,0.105779
1075.3370,0.107563
1077.2006,0.106205
1079.0643,0.102267
1080.9280,0.099118
1082.7916,0.098110
1084.6553,0.098428
1086.5190,0.099382
1088.3826,0.100822
1090.2463,0.102526
1092.1100,0.104730
1093.9737,0.107529
1095.8373,0.109937
1097.7010,0.110537
1099.5647,0.108838
1101.4283,0.105581
1103.2920,0.101255
1105.1557,0.096149
1107.0193,0.091746
1108.8830,0.089115
1110.7467,0.087633
1112.6103,0.086765
1114.4740,0.085462
1116.3377,0.082697
1118.2014,0.079041
1120.0650,0.075470
1121.9287,0.072716
1123.7924,0.071241
1125.6560,0.071062
1127.5197,0.071396
1129.3834,0.071394
1131.2470,0.070495
1133.1107,0.068849
1134.9744,0.067460
1136.8380,0.066828
1138.7017,0.067162
1140.5654,0.068504
1142.4290,0.069564
1144.2927,0.068651
1146.1564,0.065786
1148.0201,0.062071
1149.8837,0.059030
1151.7474,0.058497
1153.6111,0.060594
1155.4747,0.062546
1157.3384,0.061227
1159.2021,0.057175
1161.0657,0.052852
1162.9294,0.049279
1164.7931,0.046435
1166.6567,0.044588
1168.5204,0.043736
1170.3841,0.043664
1172.2477,0.043843
1174.1114,0.043826
1175.9751,0.043455
1177.8388,0.042895
1179.7024,0.042434
1181.5661,0.042225
1183.4298,0.042188
1185.2934,0.042344
1187.1571,0.042687
1189.0208,0.043136
1190.8844,0.043288
1192.7481,0.043087
1194.6118,0.042960
1196.4754,0.043078
1198.3391,0.043376
1200.2028,0.044028
1202.0665,0.044902
1203.9301,0.045469
1205.7938,0.045517
1207.6575,0.045306
1209.5211,0.045283
1211.3848,0.045482
1213.2485,0.045824
1215.1121,0.046559
1216.9758,0.047682
1218.8395,0.048935
1220.7031,0.050304
1222.5668,0.052398
1224.4305,0.055804
1226.2941,0.060426
1228.1578,0.064183
1230.0215,0.064112
1231.8852,0.058700
1233.7488,0.050108
1235.6125,0.044033
1237.4762,0.042523
1239.3398,0.043222
1241.2035,0.044593
1243.0672,0.046213
1244.9308,0.047661
1246.7945,0.048770
1248.6582,0.049937
1250.5218,0.050666
1252.3855,0.050059
1254.2492,0.048975
1256.1129,0.048197
1257.9765,0.047668
1259.8402,0.047568
1261.7039,0.047792
1263.5675,0.048207
1265.4312,0.048862
1267.2949,0.049640
1269.1585,0.050479
1271.0222,0.051702
1272.8859,0.053200
1274.7495,0.054477
1276.6132,0.055529
1278.4769,0.055975
1280.3405,0.055699
1282.2042,0.055265
1284.0679,0.055310
1285.9316,0.056075
1287.7952,0.057812
1289.6589,0.060242
1291.5226,0.062942
1293.3862,0.064732
1295.2499,0.064815
1297.1136,0.064953
1298.9772,0.066546
1300.8409,0.069158
1302.7046,0.071816
1304.5682,0.073644
1306.4319,0.074709
1308.2956,0.075241
1310.1592,0.075398
1312.0229,0.076926
1313.8866,0.079922
1315.7503,0.080099
1317.6139,0.075471
1319.4776,0.070353
1321.3413,0.069027
1323.2049,0.071055
1325.0686,0.074619
1326.9323,0.078180
1328.7959,0.081464
1330.6596,0.085171
1332.5233,0.089611
1334.3869,0.093974
1336.2506,0.096795
1338.1143,0.097336
1339.9780,0.096126
1341.8416,0.094157
1343.7053,0.095238
1345.5690,0.101115
1347.4326,0.109912
1349.2963,0.117914
1351.1600,0.119851
1353.0236,0.117944
1354.8873,0.119407
1356.7510,0.118580
1358.6146,0.104659
1360.4783,0.082369
1362.3420,0.063990
1364.2056,0.055921
1366.0693,0.055146
1367.9330,0.056773
1369.7967,0.059199
1371.6603,0.061375
1373.5240,0.064835
1375.3877,0.069209
1377.2513,0.071940
1379.1150,0.074928
1380.9787,0.078426
1382.8423,0.081521
1384.7060,0.084667
1386.5697,0.089797
1388.4333,0.096747
1390.2970,0.100765
1392.1607,0.103810
1394.0244,0.108670
1395.8880,0.115309
1397.7517,0.119064
1399.6154,0.121774
1401.4790,0.122850
1403.3427,0.123210
1405.2064,0.123925
1407.0700,0.122791
1408.9337,0.119755
1410.7974,0.116179
1412.6610,0.111768
1414.5247,0.106039
1416.3884,0.098438
1418.2520,0.089849
1420.1157,0.082934
1421.9794,0.078022
1423.8431,0.069312
1425.7067,0.058332
1427.5704,0.051560
1429.4341,0.047281
1431.2977,0.045292
1433.1614,0.045135
1435.0251,0.046204
1436.8887,0.049161
1438.7524,0.051075
1440.6161,0.052163
1442.4797,0.054943
1444.3434,0.059235
1446.2071,0.065159
1448.0707,0.072478
1449.9344,0.075719
1451.7981,0.075774
1453.6618,0.080301
1455.5254,0.088803
1457.3891,0.086260
1459.2528,0.062480
1461.1164,0.050581
1462.9801,0.045995
1464.8438,0.045435
1466.7074,0.046003
1468.5711,0.045771
1470.4348,0.045889
1472.2984,0.047972
1474.1621,0.050560
1476.0258,0.051041
1477.8895,0.051098
1479.7531,0.051522
1481.6168,0.053123
1483.4805,0.054859
1485.3441,0.056085
1487.2078,0.057109
1489.0715,0.057856
1490.9351,0.058519
1492.7988,0.057418
1494.6625,0.057007
1496.5261,0.059129
1498.3898,0.062145
1500.2535,0.062768
1502.1171,0.061937
1503.9808,0.060932
1505.8445,0.063047
1507.7082,0.073635
1509.5718,0.074241
1511.4355,0.072783
1513.2992,0.072352
1515.1628,0.072381
1517.0265,0.073924
1518.8902,0.074305
1520.7538,0.075803
1522.6175,0.079203
1524.4812,0.079505
1526.3448,0.080944
1528.2085,0.082322
1530.0722,0.081876
1531.9359,0.082479
1533.7995,0.085773
1535.6632,0.085779
1537.5269,0.083957
1539.3905,0.086073
1541.2542,0.094525
1543.1179,0.097109
1544.9815,0.099221
1546.8452,0.100297
1548.7089,0.101749
1550.5725,0.105433
1552.4362,0.107889
1554.2999,0.109136
1556.1635,0.109285
1558.0272,0.111009
1559.8909,0.124361
1561.7546,0.123859
1563.6182,0.122772
1565.4819,0.124799
1567.3456,0.127051
1569.2092,0.130199
1571.0729,0.133972
1572.9366,0.133936
1574.8002,0.133960
1576.6639,0.137083
1578.5276,0.139383
1580.3912,0.138772
1582.2549,0.137809
1584.1186,0.136356
1585.9822,0.134568
1587.8459,0.131896
1589.7096,0.128846
1591.5733,0.125389
1593.4369,0.121781
1595.3006,0.118187
1597.1643,0.115173
1599.0279,0.112028
1600.8916,0.109064
1602.7553,0.106229
1604.6189,0.103433
1606.4826,0.100599
1608.3463,0.097904
1610.2099,0.095096
1612.0736,0.092664
1613.9373,0.090127
1615.8010,0.087292
1617.6646,0.082038
1619.5283,0.078127
1621.3920,0.075697
1623.2556,0.073010
1625.1193,0.070813
1626.9830,0.069756
1628.8466,0.068365
1630.7103,0.066568
1632.5740,0.064930
1634.4376,0.063937
1636.3013,0.064602
1638.1650,0.066434
1640.0286,0.067397
1641.8923,0.068539
1643.7560,0.069876
1645.6197,0.071917
1647.4833,0.075938
1649.3470,0.078264
1651.2107,0.078235
1653.0743,0.080539
1654.9380,0.088501
1656.8017,0.089346
1658.6653,0.089150
1660.5290,0.088613
1662.3927,0.087295
1664.2563,0.085104
1666.1200,0.081644
1667.9837,0.076175
1669.8474,0.067086
1671.7110,0.058608
1673.5747,0.053009
1675.4384,0.046685
1677.3020,0.041610
1679.1657,0.039769
1681.0294,0.037943
1682.8930,0.036328
1684.7567,0.034335
1686.6204,0.033879
1688.4840,0.033989
1690.3477,0.033273
1692.2114,0.032029
1694.0750,0.031002
1695.9387,0.029652
1697.8024,0.028233
1699.6661,0.027406
1701.5297,0.026268
1703.3934,0.025205
1705.2571,0.024000
1707.1207,0.022526
1708.9844,0.021523
1710.8481,0.020585
1712.7117,0.019614
1714.5754,0.018738
1716.4391,0.018049
1718.3027,0.017792
1720.1664,0.017772
1722.0301,0.017492
1723.8937,0.017113
1725.7574,0.016673
1727.6211,0.016199
1729.4848,0.015632
1731.3484,0.015164
1733.2121,0.014792
1735.0758,0.014591
1736.9394,0.014232
1738.8031,0.013984
1740.6668,0.014042
1742.5304,0.014187
1744.3941,0.013978
1746.2578,0.013697
1748.1214,0.013775
1749.9851,0.014029
1751.8488,0.014063
1753.7125,0.013836
1755.5761,0.013712
1757.4398,0.013877
1759.3035,0.013914
1761.1671,0.014016
1763.0308,0.014348
1764.8945,0.014380
1766.7581,0.014153
1768.6218,0.014089
1770.4855,0.014034
1772.3491,0.013959
1774.2128,0.013849
1776.0765,0.013721
1777.9401,0.013623
1779.8038,0.013768
1781.6675,0.013908
1783.5312,0.013947
1785.3948,0.014134
1787.2585,0.014041
1789.1222,0.013743
1790.9858,0.013904
1792.8495,0.014554
1794.7132,0.014718
1796.5768,0.014726
1798.4405,0.015017
1800.3042,0.015339
1802.1678,0.015520
1804.0315,0.015519
1805.8952,0.015403
1807.7589,0.015409
1809.6225,0.015489
1811.4862,0.015425
1813.3499,0.015193
1815.2135,0.015042
1817.0772,0.015052
1818.9409,0.015230
1820.8045,0.015335
1822.6682,0.015288
1824.5319,0.015253
1826.3955,0.015242
1828.2592,0.015240
1830.1229,0.015359
1831.9865,0.015253
1833.8502,0.015090
1835.7139,0.015219
1837.5776,0.015275
1839.4412,0.015088
1841.3049,0.015013
1843.1686,0.015164
1845.0322,0.015208
1846.8959,0.015304
1848.7596,0.015606
1850.6232,0.015759
1852.4869,0.015791
1854.3506,0.015863
1856.2142,0.015796
1858.0779,0.015513
1859.9416,0.015336
1861.8052,0.015485
1863.6689,0.015267
1865.5326,0.014762
1867.3963,0.014926
1869.2599,0.015445
1871.1236,0.015426
1872.9873,0.015357
1874.8509,0.015451
1876.7146,0.015797
1878.5783,0.016220
1880.4419,0.016665
1882.3056,0.016787
1884.1693,0.016455
1886.0329,0.016141
1887.8966,0.015922
1889.7603,0.015532
1891.6240,0.015095
1893.4876,0.015093
1895.3513,0.015305
1897.2150,0.015396
1899.0786,0.015130
1900.9423,0.014912
1902.8060,0.015237
1904.6696,0.015337
1906.5333,0.015090
1908.3970,0.015228
1910.2606,0.015639
1912.1243,0.015884
1913.9880,0.016240
1915.8516,0.016299
1917.7153,0.016052
1919.5790,0.016086
1921.4427,0.016234
1923.3063,0.015720
1925.1700,0.014876
1927.0337,0.015088
1928.8973,0.015372
1930.7610,0.014648
1932.6247,0.013938
1934.4883,0.014034
1936.3520,0.014180
1938.2157,0.014163
1940.0793,0.014028
1941.9430,0.013957
1943.8067,0.013524
1945.6704,0.013072
1947.5340,0.012966
1949.3977,0.012914
1951.2614,0.012186
1953.1250,0.011850
1954.9887,0.012217
1956.8524,0.011560
1958.7160,0.010859
1960.5797,0.011386
1962.4434,0.011257
1964.3070,0.009846
1966.1707,0.009126
1968.0344,0.008467
1969.8980,0.007038
1971.7617,0.006785
1973.6254,0.007031
1975.4891,0.006812
1977.3527,0.006355
1979.2164,0.007053
1981.0801,0.008709
1982.9437,0.009846
1984.8074,0.009521
1986.6711,0.008360
1988.5347,0.008682
1990.3984,0.009912
1992.2621,0.009205
1994.1257,0.008802
1995.9894,0.011170
1997.8531,0.012125
1999.7167,0.010806
2001.5804,0.010038
2003.4441,0.009556
2005.3078,0.008631
2007.1714,0.008664
2009.0351,0.008645
2010.8988,0.008489
2012.7624,0.009053
2014.6261,0.008738
2016.4898,0.007353
2018.3534,0.007246
2020.2171,0.008495
2022.0808,0.008887
2023.9444,0.008906
2025.8081,0.009101
2027.6718,0.009281
2029.5355,0.009085
2031.3991,0.008768
2033.2628,0.008883
2035.1265,0.009358
2036.9901,0.010616
2038.8538,0.011667
2040.7175,0.012703
2042.5811,0.013117
2044.4448,0.013542
2046.3085,0.014859
2048.1721,0.015745
2050.0358,0.016311
2051.8995,0.017027
2053.7631,0.017531
2055.6268,0.018015
2057.4905,0.018986
2059.3542,0.018748
2061.2178,0.017914
2063.0815,0.018473
2064.9452,0.019251
2066.8088,0.019611
2068.6725,0.019919
2070.5362,0.019934
2072.3998,0.020370
2074.2635,0.020887
2076.1272,0.021111
2077.9908,0.021206
2079.8545,0.021259
2081.7182,0.021589
2083.5819,0.021833
2085.4455,0.021481
2087.3092,0.020711
2089.1729,0.020730
2091.0365,0.021448
2092.9002,0.020998
2094.7639,0.020071
2096.6275,0.020304
2098.4912,0.020839
2100.3549,0.020877
2102.2185,0.020958
2104.0822,0.020818
2105.9459,0.020333
2107.8095,0.020445
2109.6732,0.021099
2111.5369,0.021305
2113.4006,0.021087
2115.2642,0.020872
2117.1279,0.020450
2118.9916,0.020214
2120.8552,0.019830
2122.7189,0.019547
2124.5826,0.019197
2126.4462,0.018009
2128.3099,0.017466
2130.1736,0.018251
2132.0372,0.018359
2133.9009,0.017416
2135.7646,0.016827
2137.6282,0.016257
2139.4919,0.016007
2141.3556,0.016213
2143.2193,0.015380
2145.0829,0.013584
2146.9466,0.012853
2148.8103,0.012710
2150.6739,0.012089
2152.5376,0.011130
2154.4013,0.008892
2156.2649,0.007427
2158.1286,0.006607
2159.9923,0.006368
2161.8559,0.008831
2163.7196,0.011619
2165.5833,0.013053
2167.4470,0.013362
2169.3106,0.012490
2171.1743,0.011797
2173.0380,0.011656
2174.9016,0.012645
2176.7653,0.014312
2178.6290,0.014858
2180.4926,0.014022
2182.3563,0.013092
2184.2200,0.013946
2186.0836,0.014482
2187.9473,0.013497
2189.8110,0.013209
2191.6746,0.014345
2193.5383,0.015488
2195.4020,0.015454
2197.2657,0.016052
2199.1293,0.017986
2200.9930,0.018374
2202.8567,0.017378
2204.7203,0.017240
2206.5840,0.017118
2208.4477,0.017077
2210.3113,0.017783
2212.1750,0.018454
2214.0387,0.018714
2215.9023,0.018598
2217.7660,0.019299
2219.6297,0.020450
2221.4934,0.020017
2223.3570,0.019406
2225.2207,0.020248
2227.0844,0.019966
2228.9480,0.019716
2230.8117,0.020699
2232.6754,0.020478
2234.5390,0.020320
2236.4027,0.021734
2238.2664,0.022283
2240.1300,0.022318
2241.9937,0.023014
2243.8574,0.023453
2245.7210,0.023540
2247.5847,0.023567
2249.4484,0.023665
2251.3121,0.023882
2253.1757,0.024163
2255.0394,0.024721
2256.9031,0.024949
2258.7667,0.025034
2260.6304,0.025739
2262.4941,0.025728
2264.3577,0.025375
2266.2214,0.025439
2268.0851,0.025669
2269.9487,0.026286
2271.8124,0.026889
2273.6761,0.027260
2275.5397,0.027801
2277.4034,0.028017
2279.2671,0.028019
2281.1308,0.028208
2282.9944,0.028766
2284.8581,0.029681
2286.7218,0.030034
2288.5854,0.029801
2290.4491,0.029743
2292.3128,0.030200
2294.1764,0.030604
2296.0401,0.030686
2297.9038,0.030612
2299.7674,0.030722
2301.6311,0.030930
2303.4948,0.030919
2305.3585,0.030904
2307.2221,0.031088
2309.0858,0.031167
2310.9495,0.030895
2312.8131,0.030958
2314.6768,0.031378
2316.5405,0.031444
2318.4041,0.031349
2320.2678,0.031674
2322.1315,0.032218
2323.9951,0.032443
2325.8588,0.031996
2327.7225,0.031332
2329.5861,0.031148
2331.4498,0.031094
2333.3135,0.030942
2335.1772,0.031226
2337.0408,0.031841
2338.9045,0.032075
2340.7682,0.032279
2342.6318,0.032832
2344.4955,0.033403
2346.3592,0.033650
2348.2228,0.033113
2350.0865,0.032335
2351.9502,0.032064
2353.8138,0.032298
2355.6775,0.032616
2357.5412,0.032374
2359.4049,0.032267
2361.2685,0.032448
2363.1322,0.032299
2364.9959,0.032560
2366.8595,0.033219
2368.7232,0.033850
2370.5869,0.034490
2372.4505,0.034903
2374.3142,0.034966
2376.1779,0.035186
2378.0415,0.035440
2379.9052,0.035216
2381.7689,0.034882
2383.6325,0.034988
2385.4962,0.035445
2387.3599,0.035637
2389.2236,0.035662
2391.0872,0.035970
2392.9509,0.036207
2394.8146,0.036021
2396.6782,0.035631
2398.5419,0.035463
2400.4056,0.035913
2402.2692,0.036186
2404.1329,0.035774
2405.9966,0.035653
2407.8602,0.035998
2409.7239,0.035998
2411.5876,0.035689
2413.4512,0.035577
2415.3149,0.035566
2417.1786,0.035698
2419.0423,0.035981
2420.9059,0.036207
2422.7696,0.036320
2424.6333,0.036249
2426.4969,0.036124
2428.3606,0.036258
2430.2243,0.036478
2432.0879,0.036514
2433.9516,0.036494
2435.8153,0.036491
2437.6789,0.036714
2439.5426,0.036704
2441.4063,0.036551
2443.2700,0.036914
2445.1336,0.037320
2446.9973,0.037483
2448.8610,0.037743
2450.7246,0.037928
2452.5883,0.037868
2454.4520,0.038108
2456.3156,0.038119
2458.1793,0.037544
2460.0430,0.037586
2461.9066,0.038042
2463.7703,0.037943
2465.6340,0.037690
2467.4976,0.037889
2469.3613,0.038611
2471.2250,0.038981
2473.0887,0.038581
2474.9523,0.038265
2476.8160,0.038560
2478.6797,0.039355
2480.5433,0.039471
2482.4070,0.039103
2484.2707,0.039114
2486.1343,0.039265
2487.9980,0.039727
2489.8617,0.039659
2491.7253,0.038866
2493.5890,0.038813
2495.4527,0.039101
2497.3164,0.039047
2499.1800,0.039100
2501.0437,0.038955
2502.9074,0.038864
2504.7710,0.039194
2506.6347,0.039398
2508.4984,0.039300
2510.3620,0.039270
2512.2257,0.039344
2514.0894,0.039513
2515.9530,0.039694
2517.8167,0.039646
2519.6804,0.039894
2521.5440,0.040343
2523.4077,0.040019
2525.2714,0.039645
2527.1351,0.039829
