Wavenumber,Intensity
650.4205,0.230457
652.2841,0.233440
654.1478,0.232601
656.0115,0.229784
657.8751,0.230634
659.7388,0.232377
661.6025,0.237210
663.4661,0.240048
665.3298,0.244013
667.1935,0.247249
669.0571,0.245650
670.9208,0.237095
672.7845,0.229460
674.6481,0.223300
676.5118,0.218808
678.3755,0.216224
680.2392,0.215238
682.1028,0.213015
683.9665,0.211634
685.8302,0.209758
687.6938,0.208598
689.5575,0.206713
691.4212,0.204979
693.2848,0.203437
695.1485,0.202472
697.0122,0.201856
698.8758,0.202133
700.7395,0.201819
702.6032,0.201458
704.4669,0.198446
706.3305,0.192135
708.1942,0.184185
710.0579,0.177352
711.9215,0.169763
713.7852,0.161091
715.6489,0.152862
717.5125,0.145716
719.3762,0.138863
721.2399,0.132919
723.1035,0.127835
724.9672,0.123412
726.8309,0.118364
728.6945,0.113343
730.5582,0.109116
732.4219,0.106092
734.2856,0.103030
736.1492,0.099934
738.0129,0.098664
739.8766,0.100024
741.7402,0.102800
743.6039,0.106462
745.4676,0.109720
747.3312,0.110490
749.1949,0.109002
751.0586,0.107540
752.9222,0.106888
754.7859,0.106433
756.6496,0.106217
758.5132,0.106182
760.3769,0.105161
762.2406,0.104280
764.1043,0.103815
765.9679,0.103614
767.8316,0.103621
769.6953,0.104014
771.5589,0.104568
773.4226,0.104564
775.2863,0.104557
777.1499,0.105661
779.0136,0.107295
780.8773,0.108573
782.7409,0.109902
784.6046,0.111778
786.4683,0.113899
788.3320,0.116058
790.1956,0.118114
792.0593,0.120200
793.9230,0.121356
795.7866,0.122066
797.6503,0.122394
799.5140,0.122674
801.3776,0.123491
803.2413,0.124520
805.1050,0.124493
806.9686,0.123370
808.8323,0.121021
810.6960,0.118432
812.5596,0.115443
814.4233,0.112417
816.2870,0.109566
818.1507,0.106914
820.0143,0.104530
821.8780,0.103083
823.7417,0.102762
825.6053,0.103579
827.4690,0.105282
829.3327,0.106049
831.1963,0.101278
833.0600,0.090906
834.9237,0.082067
836.7873,0.078281
838.6510,0.077475
840.5147,0.077676
842.3784,0.078246
844.2420,0.079249
846.1057,0.080499
847.9694,0.080757
849.8330,0.079215
851.6967,0.077606
853.5604,0.076980
855.4240,0.076923
857.2877,0.076587
859.1514,0.075349
861.0150,0.074169
862.8787,0.073884
864.7424,0.074006
866.6060,0.074217
868.4697,0.074503
870.3334,0.074939
872.1971,0.075403
874.0607,0.076197
875.9244,0.077267
877.7881,0.078097
879.6517,0.078911
881.5154,0.079806
883.3791,0.080633
885.2427,0.081298
887.1064,0.081918
888.9701,0.082684
890.8337,0.083824
892.6974,0.085288
894.5611,0.086649
896.4247,0.088235
898.2884,0.090029
900.1521,0.091852
902.0158,0.093906
903.8794,0.096854
905.7431,0.100814
907.6068,0.105682
909.4704,0.111203
911.3341,0.117529
913.1978,0.124512
915.0614,0.127385
916.9251,0.119449
918.7888,0.105114
920.6524,0.094969
922.5161,0.091373
924.3798,0.091070
926.2435,0.091769
928.1071,0.092631
929.9708,0.093743
931.8345,0.095119
933.6981,0.096539
935.5618,0.098023
937.4255,0.099533
939.2891,0.100866
941.1528,0.102184
943.0165,0.103602
944.8801,0.105341
946.7438,0.107084
948.6075,0.108717
950.4711,0.110531
952.3348,0.112469
954.1985,0.114386
956.0622,0.116414
957.9258,0.118534
959.7895,0.120693
961.6532,0.122990
963.5168,0.125667
965.3805,0.128578
967.2442,0.131790
969.1078,0.135327
970.9715,0.138777
972.8352,0.142553
974.6988,0.148362
976.5625,0.158050
978.4262,0.174068
980.2899,0.195085
982.1535,0.202155
984.0172,0.176795
985.8809,0.145460
987.7445,0.132626
989.6082,0.131950
991.4719,0.133872
993.3355,0.136274
995.1992,0.138301
997.0629,0.139507
998.9265,0.140851
1000.7902,0.142774
1002.6539,0.145146
1004.5175,0.147766
1006.3812,0.150488
1008.2449,0.153091
1010.1086,0.155114
1011.9722,0.156467
1013.8359,0.157089
1015.6996,0.156740
1017.5632,0.155448
1019.4269,0.153315
1021.2906,0.150538
1023.1542,0.147505
1025.0179,0.144359
1026.8816,0.141363
1028.7452,0.138889
1030.6089,0.137226
1032.4726,0.136208
1034.3362,0.135722
1036.1999,0.135520
1038.0636,0.135403
1039.9273,0.135812
1041.7909,0.137054
1043.6546,0.138800
1045.5183,0.140362
1047.3819,0.140591
1049.2456,0.138046
1051.1093,0.131536
1052.9729,0.122585
1054.8366,0.114658
1056.7003,0.109645
1058.5639,0.107357
1060.4276,0.106674
1062.2913,0.106697
1064.1550,0.107114
1066.0186,0.107872
1067.8823,0.108856
1069.7460,0.110085
1071.6096,0.111487
1073.4733,0.112869
1075.3370,0.114372
1077.2006,0.116172
1079.0643,0.118214
1080.9280,0.120422
1082.7916,0.122699
1084.6553,0.125261
1086.5190,0.128264
1088.3826,0.131466
1090.2463,0.135053
1092.1100,0.139448
1093.9737,0.144404
1095.8373,0.149681
1097.7010,0.155409
1099.5647,0.161251
1101.4283,0.167089
1103.2920,0.172247
1105.1557,0.175494
1107.0193,0.175544
1108.8830,0.171021
1110.7467,0.161962
1112.6103,0.150391
1114.4740,0.138285
1116.3377,0.127379
1118.2014,0.118683
1120.0650,0.112337
1121.9287,0.107930
1123.7924,0.104829
1125.6560,0.102473
1127.5197,0.100281
1129.3834,0.097831
1131.2470,0.095197
1133.1107,0.092487
1134.9744,0.089917
1136.8380,0.087563
1138.7017,0.085491
1140.5654,0.083931
1142.4290,0.082801
1144.2927,0.081941
1146.1564,0.081257
1148.0201,0.080523
1149.8837,0.079991
1151.7474,0.079812
1153.6111,0.080073
1155.4747,0.080735
1157.3384,0.081651
1159.2021,0.082889
1161.0657,0.084426
1162.9294,0.086269
1164.7931,0.088388
1166.6567,0.090851
1168.5204,0.094063
1170.3841,0.097672
1172.2477,0.100360
1174.1114,0.100302
1175.9751,0.096778
1177.8388,0.091445
1179.7024,0.086939
1181.5661,0.084355
1183.4298,0.083130
1185.2934,0.082497
1187.1571,0.081878
1189.0208,0.081110
1190.8844,0.080357
1192.7481,0.079696
1194.6118,0.079166
1196.4754,0.078924
1198.3391,0.078906
1200.2028,0.078905
1202.0665,0.078840
1203.9301,0.078666
1205.7938,0.078490
1207.6575,0.078407
1209.5211,0.078515
1211.3848,0.078989
1213.2485,0.079597
1215.1121,0.080066
1216.9758,0.080301
1218.8395,0.080175
1220.7031,0.079696
1222.5668,0.079245
1224.4305,0.079118
1226.2941,0.079208
1228.1578,0.079395
1230.0215,0.079609
1231.8852,0.079857
1233.7488,0.080186
1235.6125,0.080587
1237.4762,0.081003
1239.3398,0.081353
1241.2035,0.081625
1243.0672,0.081959
1244.9308,0.082415
1246.7945,0.082936
1248.6582,0.083555
1250.5218,0.084268
1252.3855,0.085009
1254.2492,0.085743
1256.1129,0.086498
1257.9765,0.087489
1259.8402,0.088761
1261.7039,0.090124
1263.5675,0.091305
1265.4312,0.092043
1267.2949,0.091819
1269.1585,0.090904
1271.0222,0.090352
1272.8859,0.090449
1274.7495,0.090991
1276.6132,0.092029
1278.4769,0.093532
1280.3405,0.095337
1282.2042,0.097292
1284.0679,0.099366
1285.9316,0.101452
1287.7952,0.103627
1289.6589,0.106083
1291.5226,0.109187
1293.3862,0.113063
1295.2499,0.117875
1297.1136,0.123759
1298.9772,0.130729
1300.8409,0.139004
1302.7046,0.147815
1304.5682,0.153960
1306.4319,0.152998
1308.2956,0.141426
1310.1592,0.121310
1312.0229,0.101576
1313.8866,0.089418
1315.7503,0.085656
1317.6139,0.086780
1319.4776,0.089839
1321.3413,0.092959
1323.2049,0.096149
1325.0686,0.099924
1326.9323,0.103267
1328.7959,0.105265
1330.6596,0.105901
1332.5233,0.105486
1334.3869,0.104178
1336.2506,0.102861
1338.1143,0.102799
1339.9780,0.103982
1341.8416,0.103915
1343.7053,0.103503
1345.5690,0.104121
1347.4326,0.105728
1349.2963,0.108251
1351.1600,0.111157
1353.0236,0.114207
1354.8873,0.117563
1356.7510,0.119794
1358.6146,0.120455
1360.4783,0.121406
1362.3420,0.124647
1364.2056,0.127266
1366.0693,0.128580
1367.9330,0.131967
1369.7967,0.136506
1371.6603,0.140299
1373.5240,0.145985
1375.3877,0.152140
1377.2513,0.155898
1379.1150,0.160478
1380.9787,0.166370
1382.8423,0.172516
1384.7060,0.179483
1386.5697,0.188893
1388.4333,0.199223
1390.2970,0.203941
1392.1607,0.205713
1394.0244,0.205815
1395.8880,0.201004
1397.7517,0.193039
1399.6154,0.184338
1401.4790,0.175866
1403.3427,0.168335
1405.2064,0.156201
1407.0700,0.139388
1408.9337,0.123061
1410.7974,0.108020
1412.6610,0.097342
1414.5247,0.092323
1416.3884,0.091932
1418.2520,0.096155
1420.1157,0.103762
1421.9794,0.106472
1423.8431,0.103405
1425.7067,0.093350
1427.5704,0.083407
1429.4341,0.077222
1431.2977,0.074716
1433.1614,0.074636
1435.0251,0.076488
1436.8887,0.080699
1438.7524,0.083152
1440.6161,0.084292
1442.4797,0.086133
1444.3434,0.087572
1446.2071,0.089038
1448.0707,0.090111
1449.9344,0.088763
1451.7981,0.086002
1453.6618,0.083227
1455.5254,0.082804
1457.3891,0.087938
1459.2528,0.090357
1461.1164,0.089454
1462.9801,0.089970
1464.8438,0.090688
1466.7074,0.088161
1468.5711,0.084888
1470.4348,0.083430
1472.2984,0.084936
1474.1621,0.086233
1476.0258,0.085265
1477.8895,0.083709
1479.7531,0.082994
1481.6168,0.083634
1483.4805,0.084358
1485.3441,0.084999
1487.2078,0.086742
1489.0715,0.090131
1490.9351,0.092962
1492.7988,0.092079
1494.6625,0.091962
1496.5261,0.094612
1498.3898,0.097481
1500.2535,0.097943
1502.1171,0.097481
1503.9808,0.097405
1505.8445,0.101172
1507.7082,0.111764
1509.5718,0.111804
1511.4355,0.111067
1513.2992,0.111627
1515.1628,0.112436
1517.0265,0.113817
1518.8902,0.113667
1520.7538,0.114859
1522.6175,0.116419
1524.4812,0.115826
1526.3448,0.116401
1528.2085,0.116790
1530.0722,0.116201
1531.9359,0.117348
1533.7995,0.120317
1535.6632,0.120012
1537.5269,0.119684
1539.3905,0.124483
1541.2542,0.133012
1543.1179,0.134572
1544.9815,0.136460
1546.8452,0.137950
1548.7089,0.140262
1550.5725,0.144263
1552.4362,0.146807
1554.2999,0.148964
1556.1635,0.151594
1558.0272,0.158014
1559.8909,0.171419
1561.7546,0.167485
1563.6182,0.166122
1565.4819,0.167964
1567.3456,0.170119
1569.2092,0.174174
1571.0729,0.177855
1572.9366,0.178349
1574.8002,0.181003
1576.6639,0.186763
1578.5276,0.188477
1580.3912,0.188652
1582.2549,0.190139
1584.1186,0.191766
1585.9822,0.193121
1587.8459,0.194166
1589.7096,0.194719
1591.5733,0.194742
1593.4369,0.194731
1595.3006,0.194147
1597.1643,0.192859
1599.0279,0.191317
1600.8916,0.189648
1602.7553,0.187745
1604.6189,0.186315
1606.4826,0.185146
1608.3463,0.183958
1610.2099,0.182085
1612.0736,0.179422
1613.9373,0.176027
1615.8010,0.171945
1617.6646,0.164164
1619.5283,0.157486
1621.3920,0.152623
1623.2556,0.145880
1625.1193,0.137334
1626.9830,0.130129
1628.8466,0.120618
1630.7103,0.111399
1632.5740,0.104017
1634.4376,0.096306
1636.3013,0.084931
1638.1650,0.079002
1640.0286,0.077783
1641.8923,0.076781
1643.7560,0.076776
1645.6197,0.078397
1647.4833,0.080577
1649.3470,0.081780
1651.2107,0.084051
1653.0743,0.089498
1654.9380,0.092870
1656.8017,0.093035
1658.6653,0.094264
1660.5290,0.095527
1662.3927,0.096052
1664.2563,0.095352
1666.1200,0.094622
1667.9837,0.094346
1669.8474,0.093919
1671.7110,0.093753
1673.5747,0.094735
1675.4384,0.096834
1677.3020,0.098399
1679.1657,0.099529
1681.0294,0.101064
1682.8930,0.102757
1684.7567,0.104793
1686.6204,0.104564
1688.4840,0.102796
1690.3477,0.099590
1692.2114,0.095532
1694.0750,0.091777
1695.9387,0.085963
1697.8024,0.079379
1699.6661,0.075315
1701.5297,0.066970
1703.3934,0.061625
1705.2571,0.055526
1707.1207,0.046348
1708.9844,0.040807
1710.8481,0.036898
1712.7117,0.033682
1714.5754,0.031295
1716.4391,0.028998
1718.3027,0.027124
1720.1664,0.026347
1722.0301,0.025833
1723.8937,0.024240
1725.7574,0.021915
1727.6211,0.020056
1729.4848,0.018407
1731.3484,0.016920
1733.2121,0.015742
1735.0758,0.013861
1736.9394,0.013305
1738.8031,0.013625
1740.6668,0.013305
1742.5304,0.012942
1744.3941,0.012640
1746.2578,0.012355
1748.1214,0.012190
1749.9851,0.011732
1751.8488,0.011218
1753.7125,0.011141
1755.5761,0.011310
1757.4398,0.011279
1759.3035,0.011192
1761.1671,0.011320
1763.0308,0.011162
1764.8945,0.011081
1766.7581,0.011230
1768.6218,0.011166
1770.4855,0.011095
1772.3491,0.010980
1774.2128,0.010744
1776.0765,0.010828
1777.9401,0.010766
1779.8038,0.010927
1781.6675,0.011312
1783.5312,0.011364
1785.3948,0.011213
1787.2585,0.011147
1789.1222,0.011213
1790.9858,0.011259
1792.8495,0.010984
1794.7132,0.010937
1796.5768,0.011208
1798.4405,0.011454
1800.3042,0.011554
1802.1678,0.011463
1804.0315,0.011464
1805.8952,0.011663
1807.7589,0.011865
1809.6225,0.011982
1811.4862,0.011784
1813.3499,0.011671
1815.2135,0.011739
1817.0772,0.011657
1818.9409,0.011665
1820.8045,0.011806
1822.6682,0.011829
1824.5319,0.011801
1826.3955,0.011679
1828.2592,0.011548
1830.1229,0.011358
1831.9865,0.011140
1833.8502,0.011234
1835.7139,0.011437
1837.5776,0.011437
1839.4412,0.011377
1841.3049,0.011424
1843.1686,0.011569
1845.0322,0.011377
1846.8959,0.011213
1848.7596,0.011347
1850.6232,0.011481
1852.4869,0.011654
1854.3506,0.011698
1856.2142,0.011779
1858.0779,0.012041
1859.9416,0.011967
1861.8052,0.011709
1863.6689,0.011638
1865.5326,0.011696
1867.3963,0.011813
1869.2599,0.011647
1871.1236,0.011252
1872.9873,0.011266
1874.8509,0.011449
1876.7146,0.011610
1878.5783,0.011795
1880.4419,0.012088
1882.3056,0.012024
1884.1693,0.011639
1886.0329,0.011703
1887.8966,0.011886
1889.7603,0.011544
1891.6240,0.011093
1893.4876,0.011025
1895.3513,0.011195
1897.2150,0.011505
1899.0786,0.011739
1900.9423,0.011903
1902.8060,0.011805
1904.6696,0.011746
1906.5333,0.012050
1908.3970,0.011953
1910.2606,0.011392
1912.1243,0.011392
1913.9880,0.011977
1915.8516,0.012138
1917.7153,0.011750
1919.5790,0.011192
1921.4427,0.011218
1923.3063,0.011386
1925.1700,0.011153
1927.0337,0.011084
1928.8973,0.011061
1930.7610,0.010912
1932.6247,0.011260
1934.4883,0.011425
1936.3520,0.011046
1938.2157,0.011004
1940.0793,0.011299
1941.9430,0.011121
1943.8067,0.009982
1945.6704,0.009595
1947.5340,0.009551
1949.3977,0.008912
1951.2614,0.008701
1953.1250,0.009012
1954.9887,0.008935
1956.8524,0.008482
1958.7160,0.007879
1960.5797,0.006688
1962.4434,0.006228
1964.3070,0.006305
1966.1707,0.005714
1968.0344,0.004246
1969.8980,0.002760
1971.7617,0.002087
1973.6254,0.002127
1975.4891,0.003606
1977.3527,0.005223
1979.2164,0.005565
1981.0801,0.005385
1982.9437,0.004874
1984.8074,0.004721
1986.6711,0.004985
1988.5347,0.005295
1990.3984,0.005824
1992.2621,0.006316
1994.1257,0.006339
1995.9894,0.006235
1997.8531,0.007271
1999.7167,0.008610
2001.5804,0.008141
2003.4441,0.006110
2005.3078,0.004652
2007.1714,0.004694
2009.0351,0.004687
2010.8988,0.003451
2012.7624,0.003757
2014.6261,0.005269
2016.4898,0.004544
2018.3534,0.003001
2020.2171,0.003616
2022.0808,0.004393
2023.9444,0.003924
2025.8081,0.004066
2027.6718,0.003359
2029.5355,0.002730
2031.3991,0.002885
2033.2628,0.002386
2035.1265,0.003456
2036.9901,0.005698
2038.8538,0.006383
2040.7175,0.006272
2042.5811,0.006521
2044.4448,0.007217
2046.3085,0.008103
2048.1721,0.008206
2050.0358,0.008624
2051.8995,0.009528
2053.7631,0.010348
2055.6268,0.010973
2057.4905,0.011467
2059.3542,0.011728
2061.2178,0.011321
2063.0815,0.011119
2064.9452,0.011573
2066.8088,0.012027
2068.6725,0.011996
2070.5362,0.012120
2072.3998,0.013052
2074.2635,0.013452
2076.1272,0.013253
2077.9908,0.013872
2079.8545,0.014816
2081.7182,0.014586
2083.5819,0.014043
2085.4455,0.014227
2087.3092,0.014534
2089.1729,0.014567
2091.0365,0.014839
2092.9002,0.014920
2094.7639,0.014085
2096.6275,0.013946
2098.4912,0.014669
2100.3549,0.015337
2102.2185,0.015745
2104.0822,0.015079
2105.9459,0.014588
2107.8095,0.015150
2109.6732,0.015158
2111.5369,0.014834
2113.4006,0.015089
2115.2642,0.015361
2117.1279,0.015948
2118.9916,0.015888
2120.8552,0.015143
2122.7189,0.015255
2124.5826,0.015480
2126.4462,0.014965
2128.3099,0.014400
2130.1736,0.014080
2132.0372,0.013726
2133.9009,0.012540
2135.7646,0.011251
2137.6282,0.011430
2139.4919,0.011886
2141.3556,0.011797
2143.2193,0.010718
2145.0829,0.010472
2146.9466,0.011728
2148.8103,0.010743
2150.6739,0.008326
2152.5376,0.007145
2154.4013,0.005246
2156.2649,0.003320
2158.1286,0.003508
2159.9923,0.004462
2161.8559,0.005768
2163.7196,0.006857
2165.5833,0.006988
2167.4470,0.006595
2169.3106,0.006014
2171.1743,0.005765
2173.0380,0.007644
2174.9016,0.008544
2176.7653,0.006883
2178.6290,0.006728
2180.4926,0.007751
2182.3563,0.008623
2184.2200,0.009582
2186.0836,0.010242
2187.9473,0.010574
2189.8110,0.009998
2191.6746,0.010574
2193.5383,0.011392
2195.4020,0.010827
2197.2657,0.010941
2199.1293,0.012244
2200.9930,0.012741
2202.8567,0.012345
2204.7203,0.012703
2206.5840,0.012854
2208.4477,0.012573
2210.3113,0.013300
2212.1750,0.013989
2214.0387,0.014313
2215.9023,0.014413
2217.7660,0.013890
2219.6297,0.013574
2221.4934,0.013690
2223.3570,0.014487
2225.2207,0.015479
2227.0844,0.014992
2228.9480,0.014596
2230.8117,0.015481
2232.6754,0.016025
2234.5390,0.015975
2236.4027,0.015817
2238.2664,0.015965
2240.1300,0.016601
2241.9937,0.016948
2243.8574,0.017324
2245.7210,0.017520
2247.5847,0.016940
2249.4484,0.016806
2251.3121,0.017249
2253.1757,0.017550
2255.0394,0.017573
2256.9031,0.017917
2258.7667,0.018449
2260.6304,0.018789
2262.4941,0.019179
2264.3577,0.019537
2266.2214,0.019588
2268.0851,0.019652
2269.9487,0.019950
2271.8124,0.020697
2273.6761,0.021485
2275.5397,0.021627
2277.4034,0.021380
2279.2671,0.021418
2281.1308,0.021723
2282.9944,0.022090
2284.8581,0.022452
2286.7218,0.022824
2288.5854,0.023003
2290.4491,0.023061
2292.3128,0.023091
2294.1764,0.023085
2296.0401,0.023204
2297.9038,0.023510
2299.7674,0.023469
2301.6311,0.023348
2303.4948,0.023624
2305.3585,0.024068
2307.2221,0.024319
2309.0858,0.024215
2310.9495,0.024008
2312.8131,0.023803
2314.6768,0.023834
2316.5405,0.024051
2318.4041,0.024125
2320.2678,0.024025
2322.1315,0.024180
2323.9951,0.024422
2325.8588,0.024098
2327.7225,0.023589
2329.5861,0.023312
2331.4498,0.023213
2333.3135,0.023367
2335.1772,0.023435
2337.0408,0.023327
2338.9045,0.023321
2340.7682,0.023626
2342.6318,0.024034
2344.4955,0.024139
2346.3592,0.024001
2348.2228,0.023708
2350.0865,0.023388
2351.9502,0.023182
2353.8138,0.023199
2355.6775,0.023194
2357.5412,0.023228
2359.4049,0.023512
2361.2685,0.023630
2363.1322,0.023308
2364.9959,0.023018
2366.8595,0.023124
2368.7232,0.023612
2370.5869,0.023854
2372.4505,0.023742
2374.3142,0.023613
2376.1779,0.023840
2378.0415,0.024221
2379.9052,0.024390
2381.7689,0.024311
2383.6325,0.024349
2385.4962,0.024618
2387.3599,0.024757
2389.2236,0.024486
2391.0872,0.024245
2392.9509,0.024382
2394.8146,0.024507
2396.6782,0.024516
2398.5419,0.024821
2400.4056,0.024956
2402.2692,0.024720
2404.1329,0.024724
2405.9966,0.024816
2407.8602,0.024842
2409.7239,0.025165
2411.5876,0.025438
2413.4512,0.025429
2415.3149,0.025346
2417.1786,0.025471
2419.0423,0.025605
2420.9059,0.025638
2422.7696,0.025765
2424.6333,0.026006
2426.4969,0.025953
2428.3606,0.025933
2430.2243,0.026049
2432.0879,0.025979
2433.9516,0.025957
2435.8153,0.025814
2437.6789,0.025797
2439.5426,0.026286
2441.4063,0.026534
2443.2700,0.026399
2445.1336,0.026223
2446.9973,0.026199
2448.8610,0.026149
2450.7246,0.026388
2452.5883,0.026708
2454.4520,0.026464
2456.3156,0.025882
2458.1793,0.025769
2460.0430,0.026247
2461.9066,0.026926
2463.7703,0.026908
2465.6340,0.026470
2467.4976,0.026261
2469.3613,0.026110
2471.2250,0.026119
2473.0887,0.026365
2474.9523,0.026630
2476.8160,0.026684
2478.6797,0.026665
2480.5433,0.026818
2482.4070,0.027038
2484.2707,0.027270
2486.1343,0.027255
2487.9980,0.027391
2489.8617,0.027856
2491.7253,0.027960
2493.5890,0.028045
2495.4527,0.028431
2497.3164,0.028428
2499.1800,0.028176
2501.0437,0.028355
2502.9074,0.028635
2504.7710,0.028521
2506.6347,0.028584
2508.4984,0.028906
2510.3620,0.029193
2512.2257,0.029285
2514.0894,0.029067
2515.9530,0.028755
2517.8167,0.029034
2519.6804,0.029113
2521.5440,0.029490
2523.4077,0.030274
2525.2714,0.030185
2527.1351,0.029707
