Wavenumber,Intensity
650.4205,0.129979
652.2841,0.128475
654.1478,0.124907
656.0115,0.114335
657.8751,0.103611
659.7388,0.099379
661.6025,0.098191
663.4661,0.094458
665.3298,0.090990
667.1935,0.089245
669.0571,0.087424
670.9208,0.085465
672.7845,0.085401
674.6481,0.085254
676.5118,0.085693
678.3755,0.087131
680.2392,0.088053
682.1028,0.087760
683.9665,0.087294
685.8302,0.087148
687.6938,0.087553
689.5575,0.089061
691.4212,0.089005
693.2848,0.088205
695.1485,0.088921
697.0122,0.089756
698.8758,0.091083
700.7395,0.091852
702.6032,0.091760
704.4669,0.089691
706.3305,0.087894
708.1942,0.085388
710.0579,0.081051
711.9215,0.077624
713.7852,0.075093
715.6489,0.072163
717.5125,0.069222
719.3762,0.066883
721.2399,0.064577
723.1035,0.062062
724.9672,0.059936
726.8309,0.057847
728.6945,0.056284
730.5582,0.054309
732.4219,0.052300
734.2856,0.051257
736.1492,0.050553
738.0129,0.049829
739.8766,0.050122
741.7402,0.051006
743.6039,0.052051
745.4676,0.052841
747.3312,0.053329
749.1949,0.053516
751.0586,0.053178
752.9222,0.052571
754.7859,0.052344
756.6496,0.052155
758.5132,0.051979
760.3769,0.051787
762.2406,0.051636
764.1043,0.051881
765.9679,0.052248
767.8316,0.052099
769.6953,0.052017
771.5589,0.052223
773.4226,0.052368
775.2863,0.052952
777.1499,0.053647
779.0136,0.054154
780.8773,0.054774
782.7409,0.055361
784.6046,0.056258
786.4683,0.057158
788.3320,0.058166
790.1956,0.059058
792.0593,0.060177
793.9230,0.061329
795.7866,0.062319
797.6503,0.063114
799.5140,0.063851
801.3776,0.064789
803.2413,0.065447
805.1050,0.065500
806.9686,0.065678
808.8323,0.065832
810.6960,0.065148
812.5596,0.063959
814.4233,0.062909
816.2870,0.062230
818.1507,0.061861
820.0143,0.061848
821.8780,0.062492
823.7417,0.063669
825.6053,0.065585
827.4690,0.068448
829.3327,0.071713
831.1963,0.072945
833.0600,0.071671
834.9237,0.071060
836.7873,0.072349
838.6510,0.073619
840.5147,0.073329
842.3784,0.072036
844.2420,0.070325
846.1057,0.067208
847.9694,0.060925
849.8330,0.051044
851.6967,0.040973
853.5604,0.033826
855.4240,0.029617
857.2877,0.027551
859.1514,0.026689
861.0150,0.026337
862.8787,0.026313
864.7424,0.026460
866.6060,0.026947
868.4697,0.027866
870.3334,0.028828
872.1971,0.030024
874.0607,0.031619
875.9244,0.033277
877.7881,0.035360
879.6517,0.038118
881.5154,0.041127
883.3791,0.043476
885.2427,0.044067
887.1064,0.042176
888.9701,0.038727
890.8337,0.035111
892.6974,0.032110
894.5611,0.030371
896.4247,0.029919
898.2884,0.030083
900.1521,0.030755
902.0158,0.031808
903.8794,0.033388
905.7431,0.035439
907.6068,0.037744
909.4704,0.040318
911.3341,0.043069
913.1978,0.045860
915.0614,0.047160
916.9251,0.044273
918.7888,0.038326
920.6524,0.033528
922.5161,0.031555
924.3798,0.031485
926.2435,0.032013
928.1071,0.032498
929.9708,0.033139
931.8345,0.034113
933.6981,0.035401
935.5618,0.037096
937.4255,0.039029
939.2891,0.040933
941.1528,0.042542
943.0165,0.043493
944.8801,0.043039
946.7438,0.040945
948.6075,0.038614
950.4711,0.037256
952.3348,0.036844
954.1985,0.037153
956.0622,0.037904
957.9258,0.038860
959.7895,0.039854
961.6532,0.040927
963.5168,0.042069
965.3805,0.043409
967.2442,0.045260
969.1078,0.047585
970.9715,0.050034
972.8352,0.052770
974.6988,0.056756
976.5625,0.063009
978.4262,0.072573
980.2899,0.084872
982.1535,0.091247
984.0172,0.083757
985.8809,0.073700
987.7445,0.071270
989.6082,0.071229
991.4719,0.066005
993.3355,0.056067
995.1992,0.046762
997.0629,0.041055
998.9265,0.038446
1000.7902,0.037383
1002.6539,0.037094
1004.5175,0.037243
1006.3812,0.037584
1008.2449,0.038196
1010.1086,0.038996
1011.9722,0.039708
1013.8359,0.040546
1015.6996,0.041591
1017.5632,0.042680
1019.4269,0.043636
1021.2906,0.044651
1023.1542,0.045782
1025.0179,0.046704
1026.8816,0.047612
1028.7452,0.048667
1030.6089,0.049956
1032.4726,0.051422
1034.3362,0.052742
1036.1999,0.054070
1038.0636,0.055686
1039.9273,0.057642
1041.7909,0.059973
1043.6546,0.062399
1045.5183,0.064787
1047.3819,0.066990
1049.2456,0.068112
1051.1093,0.067272
1052.9729,0.065146
1054.8366,0.063299
1056.7003,0.062670
1058.5639,0.062973
1060.4276,0.062407
1062.2913,0.059823
1064.1550,0.056552
1066.0186,0.054370
1067.8823,0.053371
1069.7460,0.053268
1071.6096,0.053908
1073.4733,0.054903
1075.3370,0.056207
1077.2006,0.057558
1079.0643,0.058797
1080.9280,0.060201
1082.7916,0.061747
1084.6553,0.063445
1086.5190,0.065313
1088.3826,0.067245
1090.2463,0.069359
1092.1100,0.071718
1093.9737,0.074401
1095.8373,0.077318
1097.7010,0.080353
1099.5647,0.083547
1101.4283,0.086767
1103.2920,0.089560
1105.1557,0.091359
1107.0193,0.091595
1108.8830,0.089862
1110.7467,0.086401
1112.6103,0.081867
1114.4740,0.077030
1116.3377,0.072520
1118.2014,0.068736
1120.0650,0.066061
1121.9287,0.064379
1123.7924,0.063444
1125.6560,0.063054
1127.5197,0.062662
1129.3834,0.061842
1131.2470,0.060598
1133.1107,0.059205
1134.9744,0.057885
1136.8380,0.056833
1138.7017,0.056227
1140.5654,0.056071
1142.4290,0.056432
1144.2927,0.057225
1146.1564,0.058350
1148.0201,0.059962
1149.8837,0.062095
1151.7474,0.064367
1153.6111,0.066311
1155.4747,0.067354
1157.3384,0.066184
1159.2021,0.062089
1161.0657,0.056704
1162.9294,0.052464
1164.7931,0.050491
1166.6567,0.050403
1168.5204,0.051361
1170.3841,0.052672
1172.2477,0.053803
1174.1114,0.054091
1175.9751,0.053170
1177.8388,0.051623
1179.7024,0.050384
1181.5661,0.049918
1183.4298,0.049838
1185.2934,0.049760
1187.1571,0.049815
1189.0208,0.049714
1190.8844,0.049337
1192.7481,0.049094
1194.6118,0.049108
1196.4754,0.049093
1198.3391,0.049134
1200.2028,0.049393
1202.0665,0.049647
1203.9301,0.049744
1205.7938,0.049747
1207.6575,0.049771
1209.5211,0.049977
1211.3848,0.050354
1213.2485,0.050724
1215.1121,0.051131
1216.9758,0.051600
1218.8395,0.051981
1220.7031,0.052274
1222.5668,0.052661
1224.4305,0.053125
1226.2941,0.053590
1228.1578,0.054039
1230.0215,0.054493
1231.8852,0.055011
1233.7488,0.055564
1235.6125,0.056140
1237.4762,0.056767
1239.3398,0.057399
1241.2035,0.058061
1243.0672,0.058967
1244.9308,0.060107
1246.7945,0.061248
1248.6582,0.062486
1250.5218,0.064061
1252.3855,0.065942
1254.2492,0.067997
1256.1129,0.070242
1257.9765,0.072681
1259.8402,0.074629
1261.7039,0.074979
1263.5675,0.073271
1265.4312,0.069893
1267.2949,0.066096
1269.1585,0.063274
1271.0222,0.062036
1272.8859,0.062301
1274.7495,0.063438
1276.6132,0.065053
1278.4769,0.067111
1280.3405,0.069525
1282.2042,0.072308
1284.0679,0.075503
1285.9316,0.079222
1287.7952,0.083765
1289.6589,0.088827
1291.5226,0.093501
1293.3862,0.095819
1295.2499,0.094125
1297.1136,0.089985
1298.9772,0.086803
1300.8409,0.086689
1302.7046,0.089076
1304.5682,0.090698
1306.4319,0.088192
1308.2956,0.080903
1310.1592,0.071499
1312.0229,0.063880
1313.8866,0.060111
1315.7503,0.059902
1317.6139,0.061930
1319.4776,0.065035
1321.3413,0.068411
1323.2049,0.072040
1325.0686,0.076215
1326.9323,0.080950
1328.7959,0.085954
1330.6596,0.090035
1332.5233,0.091189
1334.3869,0.088253
1336.2506,0.083144
1338.1143,0.079669
1339.9780,0.079030
1341.8416,0.077909
1343.7053,0.075190
1345.5690,0.072268
1347.4326,0.070559
1349.2963,0.070835
1351.1600,0.072331
1353.0236,0.074479
1354.8873,0.077319
1356.7510,0.080047
1358.6146,0.082245
1360.4783,0.084900
1362.3420,0.089599
1364.2056,0.094256
1366.0693,0.096996
1367.9330,0.100925
1369.7967,0.105835
1371.6603,0.110099
1373.5240,0.116255
1375.3877,0.123245
1377.2513,0.127303
1379.1150,0.131474
1380.9787,0.136551
1382.8423,0.140779
1384.7060,0.143419
1386.5697,0.144724
1388.4333,0.143205
1390.2970,0.137482
1392.1607,0.131069
1394.0244,0.127042
1395.8880,0.125995
1397.7517,0.125841
1399.6154,0.124706
1401.4790,0.119366
1403.3427,0.110339
1405.2064,0.097291
1407.0700,0.084938
1408.9337,0.079005
1410.7974,0.077276
1412.6610,0.075654
1414.5247,0.071424
1416.3884,0.065726
1418.2520,0.061090
1420.1157,0.057554
1421.9794,0.054949
1423.8431,0.052525
1425.7067,0.048892
1427.5704,0.045623
1429.4341,0.043358
1431.2977,0.041377
1433.1614,0.039965
1435.0251,0.040651
1436.8887,0.044586
1438.7524,0.047779
1440.6161,0.049721
1442.4797,0.053274
1444.3434,0.057195
1446.2071,0.060574
1448.0707,0.062531
1449.9344,0.060541
1451.7981,0.056653
1453.6618,0.053586
1455.5254,0.053963
1457.3891,0.061688
1459.2528,0.067142
1461.1164,0.067004
1462.9801,0.068096
1464.8438,0.069909
1466.7074,0.067841
1468.5711,0.062961
1470.4348,0.059746
1472.2984,0.060031
1474.1621,0.061890
1476.0258,0.062453
1477.8895,0.062548
1479.7531,0.062856
1481.6168,0.064503
1483.4805,0.066165
1485.3441,0.067349
1487.2078,0.069885
1489.0715,0.074670
1490.9351,0.079541
1492.7988,0.080309
1494.6625,0.080900
1496.5261,0.085293
1498.3898,0.090499
1500.2535,0.092046
1502.1171,0.091388
1503.9808,0.089952
1505.8445,0.090850
1507.7082,0.095270
1509.5718,0.091551
1511.4355,0.086188
1513.2992,0.080994
1515.1628,0.076725
1517.0265,0.073351
1518.8902,0.070307
1520.7538,0.069483
1522.6175,0.069556
1524.4812,0.068718
1526.3448,0.068992
1528.2085,0.069423
1530.0722,0.068935
1531.9359,0.069699
1533.7995,0.072998
1535.6632,0.073964
1537.5269,0.073230
1539.3905,0.077271
1541.2542,0.086668
1543.1179,0.089172
1544.9815,0.091289
1546.8452,0.092797
1548.7089,0.094389
1550.5725,0.098097
1552.4362,0.100601
1554.2999,0.102243
1556.1635,0.104134
1558.0272,0.109364
1559.8909,0.125211
1561.7546,0.122093
1563.6182,0.118198
1565.4819,0.118089
1567.3456,0.118257
1569.2092,0.119352
1571.0729,0.120129
1572.9366,0.117131
1574.8002,0.114756
1576.6639,0.114593
1578.5276,0.112347
1580.3912,0.108866
1582.2549,0.106035
1584.1186,0.103436
1585.9822,0.100782
1587.8459,0.098372
1589.7096,0.096273
1591.5733,0.094174
1593.4369,0.092330
1595.3006,0.090809
1597.1643,0.089286
1599.0279,0.087666
1600.8916,0.086120
1602.7553,0.084923
1604.6189,0.083898
1606.4826,0.083084
1608.3463,0.082730
1610.2099,0.082584
1612.0736,0.081700
1613.9373,0.080307
1615.8010,0.080065
1617.6646,0.080806
1619.5283,0.079242
1621.3920,0.077833
1623.2556,0.078065
1625.1193,0.077794
1626.9830,0.076084
1628.8466,0.073372
1630.7103,0.068899
1632.5740,0.063559
1634.4376,0.058219
1636.3013,0.052481
1638.1650,0.048280
1640.0286,0.045600
1641.8923,0.043144
1643.7560,0.041610
1645.6197,0.041478
1647.4833,0.042787
1649.3470,0.043043
1651.2107,0.043075
1653.0743,0.045319
1654.9380,0.047181
1656.8017,0.045794
1658.6653,0.045250
1660.5290,0.045101
1662.3927,0.045106
1664.2563,0.044820
1666.1200,0.043625
1667.9837,0.042163
1669.8474,0.041092
1671.7110,0.040080
1673.5747,0.039131
1675.4384,0.039092
1677.3020,0.039394
1679.1657,0.039166
1681.0294,0.039196
1682.8930,0.039662
1684.7567,0.041182
1686.6204,0.041488
1688.4840,0.040490
1690.3477,0.039060
1692.2114,0.037030
1694.0750,0.035020
1695.9387,0.032993
1697.8024,0.030998
1699.6661,0.029669
1701.5297,0.027284
1703.3934,0.024991
1705.2571,0.022597
1707.1207,0.019648
1708.9844,0.017459
1710.8481,0.015576
1712.7117,0.013948
1714.5754,0.012888
1716.4391,0.012181
1718.3027,0.011756
1720.1664,0.011290
1722.0301,0.010920
1723.8937,0.010312
1725.7574,0.009466
1727.6211,0.008748
1729.4848,0.008093
1731.3484,0.007500
1733.2121,0.007126
1735.0758,0.006402
1736.9394,0.006214
1738.8031,0.006364
1740.6668,0.006144
1742.5304,0.005858
1744.3941,0.005582
1746.2578,0.005130
1748.1214,0.004889
1749.9851,0.004827
1751.8488,0.004923
1753.7125,0.004878
1755.5761,0.004762
1757.4398,0.004585
1759.3035,0.004434
1761.1671,0.004386
1763.0308,0.004318
1764.8945,0.004276
1766.7581,0.004336
1768.6218,0.004270
1770.4855,0.004211
1772.3491,0.004352
1774.2128,0.004241
1776.0765,0.003945
1777.9401,0.003985
1779.8038,0.004170
1781.6675,0.004190
1783.5312,0.004152
1785.3948,0.004202
1787.2585,0.004045
1789.1222,0.003954
1790.9858,0.004035
1792.8495,0.004136
1794.7132,0.004177
1796.5768,0.004043
1798.4405,0.003883
1800.3042,0.004058
1802.1678,0.004064
1804.0315,0.004041
1805.8952,0.004143
1807.7589,0.004112
1809.6225,0.003984
1811.4862,0.003881
1813.3499,0.003796
1815.2135,0.003834
1817.0772,0.003829
1818.9409,0.003882
1820.8045,0.003869
1822.6682,0.003859
1824.5319,0.003986
1826.3955,0.004090
1828.2592,0.004093
1830.1229,0.003871
1831.9865,0.003636
1833.8502,0.003806
1835.7139,0.003941
1837.5776,0.003890
1839.4412,0.003819
1841.3049,0.003800
1843.1686,0.003751
1845.0322,0.003514
1846.8959,0.003428
1848.7596,0.003756
1850.6232,0.003730
1852.4869,0.003713
1854.3506,0.003931
1856.2142,0.003962
1858.0779,0.003857
1859.9416,0.003905
1861.8052,0.003922
1863.6689,0.003826
1865.5326,0.003865
1867.3963,0.004018
1869.2599,0.003914
1871.1236,0.003897
1872.9873,0.003843
1874.8509,0.003746
1876.7146,0.003713
1878.5783,0.003870
1880.4419,0.003927
1882.3056,0.003919
1884.1693,0.003948
1886.0329,0.003820
1887.8966,0.003538
1889.7603,0.003486
1891.6240,0.003498
1893.4876,0.003518
1895.3513,0.003852
1897.2150,0.003832
1899.0786,0.003442
1900.9423,0.003667
1902.8060,0.004328
1904.6696,0.004655
1906.5333,0.004233
1908.3970,0.003835
1910.2606,0.003791
1912.1243,0.003859
1913.9880,0.003834
1915.8516,0.003714
1917.7153,0.003890
1919.5790,0.003964
1921.4427,0.003700
1923.3063,0.003587
1925.1700,0.003254
1927.0337,0.003585
1928.8973,0.004362
1930.7610,0.004229
1932.6247,0.003706
1934.4883,0.003751
1936.3520,0.003731
1938.2157,0.003199
1940.0793,0.002894
1941.9430,0.003435
1943.8067,0.003497
1945.6704,0.002638
1947.5340,0.002947
1949.3977,0.003783
1951.2614,0.003240
1953.1250,0.002863
1954.9887,0.002951
1956.8524,0.003250
1958.7160,0.002739
1960.5797,0.001977
1962.4434,0.001984
1964.3070,0.001821
1966.1707,0.001742
1968.0344,0.002330
1969.8980,0.002337
1971.7617,0.002155
1973.6254,0.001049
1975.4891,-0.000227
1977.3527,0.000373
1979.2164,0.001820
1981.0801,0.001077
1982.9437,0.000691
1984.8074,0.001465
1986.6711,0.002408
1988.5347,0.002659
1990.3984,0.002595
1992.2621,0.002701
1994.1257,0.002482
1995.9894,0.002521
1997.8531,0.003466
1999.7167,0.003508
2001.5804,0.002740
2003.4441,0.001977
2005.3078,0.003019
2007.1714,0.004157
2009.0351,0.003092
2010.8988,0.002153
2012.7624,0.001262
2014.6261,0.001318
2016.4898,0.002635
2018.3534,0.002746
2020.2171,0.002108
2022.0808,0.001859
2023.9444,0.001521
2025.8081,0.001435
2027.6718,0.002200
2029.5355,0.002506
2031.3991,0.002604
2033.2628,0.002332
2035.1265,0.002284
2036.9901,0.002264
2038.8538,0.003201
2040.7175,0.003934
2042.5811,0.004504
2044.4448,0.005109
2046.3085,0.004524
2048.1721,0.004098
2050.0358,0.005233
2051.8995,0.005516
2053.7631,0.004703
2055.6268,0.004620
2057.4905,0.005541
2059.3542,0.005761
2061.2178,0.005035
2063.0815,0.004944
2064.9452,0.005542
2066.8088,0.005921
2068.6725,0.005758
2070.5362,0.005266
2072.3998,0.005519
2074.2635,0.005960
2076.1272,0.005871
2077.9908,0.006075
2079.8545,0.006542
2081.7182,0.006822
2083.5819,0.006726
2085.4455,0.006410
2087.3092,0.006024
2089.1729,0.006036
2091.0365,0.006356
2092.9002,0.006774
2094.7639,0.006836
2096.6275,0.006742
2098.4912,0.006829
2100.3549,0.007155
2102.2185,0.007477
2104.0822,0.007634
2105.9459,0.007706
2107.8095,0.007792
2109.6732,0.007590
2111.5369,0.007514
2113.4006,0.007664
2115.2642,0.007516
2117.1279,0.007544
2118.9916,0.008004
2120.8552,0.008206
2122.7189,0.008024
2124.5826,0.007670
2126.4462,0.007181
2128.3099,0.007397
2130.1736,0.007625
2132.0372,0.006994
2133.9009,0.006574
2135.7646,0.006686
2137.6282,0.007009
2139.4919,0.007566
2141.3556,0.007369
2143.2193,0.006410
2145.0829,0.006877
2146.9466,0.007424
2148.8103,0.006873
2150.6739,0.006954
2152.5376,0.006868
2154.4013,0.006006
2156.2649,0.004623
2158.1286,0.003558
2159.9923,0.004595
2161.8559,0.006368
2163.7196,0.007168
2165.5833,0.007855
2167.4470,0.008039
2169.3106,0.008551
2171.1743,0.008363
2173.0380,0.007771
2174.9016,0.008521
2176.7653,0.009868
2178.6290,0.010096
2180.4926,0.009912
2182.3563,0.009743
2184.2200,0.010425
2186.0836,0.011258
2187.9473,0.010866
2189.8110,0.010852
2191.6746,0.011815
2193.5383,0.012136
2195.4020,0.012023
2197.2657,0.011749
2199.1293,0.011752
2200.9930,0.011951
2202.8567,0.012694
2204.7203,0.013107
2206.5840,0.013331
2208.4477,0.012906
2210.3113,0.012339
2212.1750,0.012297
2214.0387,0.012350
2215.9023,0.012118
2217.7660,0.012278
2219.6297,0.011961
2221.4934,0.011295
2223.3570,0.011388
2225.2207,0.011846
2227.0844,0.010938
2228.9480,0.010200
2230.8117,0.010553
2232.6754,0.011413
2234.5390,0.011946
2236.4027,0.012034
2238.2664,0.012211
2240.1300,0.012107
2241.9937,0.011571
2243.8574,0.011434
2245.7210,0.011441
2247.5847,0.011304
2249.4484,0.011418
2251.3121,0.011363
2253.1757,0.011514
2255.0394,0.011500
2256.9031,0.011157
2258.7667,0.011158
2260.6304,0.011453
2262.4941,0.011459
2264.3577,0.010927
2266.2214,0.010787
2268.0851,0.011388
2269.9487,0.012083
2271.8124,0.011760
2273.6761,0.010710
2275.5397,0.010890
2277.4034,0.011645
2279.2671,0.011877
2281.1308,0.012011
2282.9944,0.012217
2284.8581,0.012079
2286.7218,0.011938
2288.5854,0.011963
2290.4491,0.011859
2292.3128,0.011645
2294.1764,0.011523
2296.0401,0.011740
2297.9038,0.012115
2299.7674,0.012060
2301.6311,0.011955
2303.4948,0.011976
2305.3585,0.011933
2307.2221,0.012113
2309.0858,0.012225
2310.9495,0.012252
2312.8131,0.012027
2314.6768,0.012163
2316.5405,0.012531
2318.4041,0.012585
2320.2678,0.012600
2322.1315,0.012623
2323.9951,0.012731
2325.8588,0.012672
2327.7225,0.012144
2329.5861,0.011617
2331.4498,0.011392
2333.3135,0.011412
2335.1772,0.011837
2337.0408,0.011882
2338.9045,0.011735
2340.7682,0.011974
2342.6318,0.012212
2344.4955,0.012167
2346.3592,0.012234
2348.2228,0.012030
2350.0865,0.011570
2351.9502,0.011420
2353.8138,0.011810
2355.6775,0.012100
2357.5412,0.011959
2359.4049,0.011900
2361.2685,0.012108
2363.1322,0.012395
2364.9959,0.012615
2366.8595,0.012824
2368.7232,0.012981
2370.5869,0.013275
2372.4505,0.012908
2374.3142,0.012661
2376.1779,0.013148
2378.0415,0.013591
2379.9052,0.013556
2381.7689,0.013516
2383.6325,0.013663
2385.4962,0.013854
2387.3599,0.014045
2389.2236,0.014083
2391.0872,0.014167
2392.9509,0.014273
2394.8146,0.014419
2396.6782,0.014635
2398.5419,0.014751
2400.4056,0.014870
2402.2692,0.014950
2404.1329,0.014731
2405.9966,0.014683
2407.8602,0.015024
2409.7239,0.015550
2411.5876,0.015719
2413.4512,0.015651
2415.3149,0.015703
2417.1786,0.015957
2419.0423,0.016165
2420.9059,0.016131
2422.7696,0.016185
2424.6333,0.016368
2426.4969,0.016345
2428.3606,0.016403
2430.2243,0.016422
2432.0879,0.016716
2433.9516,0.016884
2435.8153,0.016856
2437.6789,0.016945
2439.5426,0.016960
2441.4063,0.017176
2443.2700,0.017553
2445.1336,0.017579
2446.9973,0.017840
2448.8610,0.018403
2450.7246,0.018450
2452.5883,0.018076
2454.4520,0.018169
2456.3156,0.018157
2458.1793,0.018164
2460.0430,0.018194
2461.9066,0.018139
2463.7703,0.018245
2465.6340,0.018390
2467.4976,0.018934
2469.3613,0.019477
2471.2250,0.019436
2473.0887,0.019345
2474.9523,0.019291
2476.8160,0.019407
2478.6797,0.019744
2480.5433,0.020246
2482.4070,0.020313
2484.2707,0.019825
2486.1343,0.019729
2487.9980,0.019963
2489.8617,0.020018
2491.7253,0.020096
2493.5890,0.020343
2495.4527,0.020495
2497.3164,0.020592
2499.1800,0.020466
2501.0437,0.020260
2502.9074,0.020513
2504.7710,0.020719
2506.6347,0.020550
2508.4984,0.020962
2510.3620,0.021241
2512.2257,0.020794
2514.0894,0.020560
2515.9530,0.020758
2517.8167,0.020919
2519.6804,0.020962
2521.5440,0.021102
2523.4077,0.020964
2525.2714,0.021139
2527.1351,0.021648
