Wavenumber,Intensity
650.4205,0.158501
652.2841,0.158642
654.1478,0.161346
656.0115,0.162812
657.8751,0.165625
659.7388,0.170972
661.6025,0.179084
663.4661,0.185212
665.3298,0.188548
667.1935,0.190124
669.0571,0.188645
670.9208,0.178539
672.7845,0.166516
674.6481,0.155712
676.5118,0.149441
678.3755,0.144469
680.2392,0.139713
682.1028,0.136079
683.9665,0.134781
685.8302,0.133651
687.6938,0.132844
689.5575,0.132100
691.4212,0.132837
693.2848,0.134034
695.1485,0.135071
697.0122,0.136878
698.8758,0.139574
700.7395,0.141877
702.6032,0.144942
704.4669,0.148299
706.3305,0.150973
708.1942,0.152355
710.0579,0.152836
711.9215,0.150208
713.7852,0.145167
715.6489,0.137062
717.5125,0.124808
719.3762,0.111617
721.2399,0.102415
723.1035,0.096656
724.9672,0.092682
726.8309,0.089863
728.6945,0.087377
730.5582,0.085597
732.4219,0.084637
734.2856,0.082532
736.1492,0.080407
738.0129,0.079961
739.8766,0.081058
741.7402,0.083490
743.6039,0.086831
745.4676,0.089569
747.3312,0.091458
749.1949,0.093523
751.0586,0.094974
752.9222,0.094196
754.7859,0.090780
756.6496,0.088035
758.5132,0.087398
760.3769,0.088313
762.2406,0.091087
764.1043,0.095505
765.9679,0.101043
767.8316,0.105183
769.6953,0.104583
771.5589,0.101140
773.4226,0.100756
775.2863,0.100528
777.1499,0.093813
779.0136,0.085420
780.8773,0.080933
782.7409,0.079230
784.6046,0.078547
786.4683,0.078202
788.3320,0.078564
790.1956,0.079558
792.0593,0.081075
793.9230,0.082707
795.7866,0.084445
797.6503,0.087051
799.5140,0.090128
801.3776,0.091238
803.2413,0.089712
805.1050,0.087782
806.9686,0.086893
808.8323,0.086557
810.6960,0.086420
812.5596,0.085799
814.4233,0.084896
816.2870,0.084539
818.1507,0.085504
820.0143,0.088147
821.8780,0.091901
823.7417,0.093982
825.6053,0.093107
827.4690,0.093030
829.3327,0.096334
831.1963,0.099290
833.0600,0.096966
834.9237,0.088567
836.7873,0.078995
838.6510,0.073850
840.5147,0.075013
842.3784,0.080385
844.2420,0.087536
846.1057,0.092946
847.9694,0.092093
849.8330,0.084373
851.6967,0.074877
853.5604,0.067896
855.4240,0.064047
857.2877,0.062059
859.1514,0.060921
861.0150,0.060177
862.8787,0.059974
864.7424,0.060385
866.6060,0.061276
868.4697,0.062437
870.3334,0.063123
872.1971,0.063364
874.0607,0.063130
875.9244,0.062450
877.7881,0.062130
879.6517,0.062188
881.5154,0.062519
883.3791,0.063672
885.2427,0.065644
887.1064,0.067996
888.9701,0.069547
890.8337,0.069178
892.6974,0.068110
894.5611,0.068464
896.4247,0.070571
898.2884,0.073817
900.1521,0.077049
902.0158,0.078225
903.8794,0.076937
905.7431,0.075959
907.6068,0.077795
909.4704,0.082451
911.3341,0.089205
913.1978,0.097302
915.0614,0.103963
916.9251,0.103681
918.7888,0.097039
920.6524,0.091106
922.5161,0.088455
924.3798,0.085773
926.2435,0.081254
928.1071,0.076394
929.9708,0.072918
931.8345,0.071065
933.6981,0.070660
935.5618,0.071786
937.4255,0.074555
939.2891,0.079210
941.1528,0.085467
943.0165,0.090693
944.8801,0.091547
946.7438,0.089015
948.6075,0.085093
950.4711,0.080221
952.3348,0.076788
954.1985,0.076396
956.0622,0.078109
957.9258,0.080919
959.7895,0.084507
961.6532,0.088430
963.5168,0.091388
965.3805,0.092726
967.2442,0.093934
969.1078,0.096089
970.9715,0.099041
972.8352,0.102887
974.6988,0.108373
976.5625,0.116213
978.4262,0.127806
980.2899,0.143219
982.1535,0.151832
984.0172,0.140765
985.8809,0.123886
987.7445,0.116871
989.6082,0.117507
991.4719,0.120009
993.3355,0.122136
995.1992,0.123685
997.0629,0.125269
998.9265,0.126898
1000.7902,0.128244
1002.6539,0.129038
1004.5175,0.128954
1006.3812,0.127671
1008.2449,0.125713
1010.1086,0.124145
1011.9722,0.123582
1013.8359,0.124120
1015.6996,0.125557
1017.5632,0.127473
1019.4269,0.129698
1021.2906,0.132304
1023.1542,0.135479
1025.0179,0.138718
1026.8816,0.140958
1028.7452,0.141630
1030.6089,0.141394
1032.4726,0.140749
1034.3362,0.138977
1036.1999,0.135613
1038.0636,0.132033
1039.9273,0.130267
1041.7909,0.130935
1043.6546,0.132942
1045.5183,0.135147
1047.3819,0.136909
1049.2456,0.136972
1051.1093,0.134417
1052.9729,0.129768
1054.8366,0.125076
1056.7003,0.122359
1058.5639,0.121958
1060.4276,0.122859
1062.2913,0.123604
1064.1550,0.122850
1066.0186,0.120067
1067.8823,0.116339
1069.7460,0.113771
1071.6096,0.113466
1073.4733,0.114725
1075.3370,0.116636
1077.2006,0.118729
1079.0643,0.120747
1080.9280,0.122808
1082.7916,0.124934
1084.6553,0.126466
1086.5190,0.126593
1088.3826,0.125503
1090.2463,0.124820
1092.1100,0.125526
1093.9737,0.127185
1095.8373,0.129642
1097.7010,0.133174
1099.5647,0.137845
1101.4283,0.142929
1103.2920,0.147326
1105.1557,0.149952
1107.0193,0.149710
1108.8830,0.147014
1110.7467,0.142530
1112.6103,0.137044
1114.4740,0.131354
1116.3377,0.126428
1118.2014,0.122896
1120.0650,0.121142
1121.9287,0.120722
1123.7924,0.120524
1125.6560,0.120067
1127.5197,0.119663
1129.3834,0.119400
1131.2470,0.118971
1133.1107,0.118136
1134.9744,0.116772
1136.8380,0.114528
1138.7017,0.111427
1140.5654,0.108307
1142.4290,0.105800
1144.2927,0.103815
1146.1564,0.101816
1148.0201,0.099642
1149.8837,0.097657
1151.7474,0.096124
1153.6111,0.095138
1155.4747,0.094732
1157.3384,0.094952
1159.2021,0.095796
1161.0657,0.097101
1162.9294,0.098999
1164.7931,0.101712
1166.6567,0.104931
1168.5204,0.107907
1170.3841,0.110181
1172.2477,0.111501
1174.1114,0.111124
1175.9751,0.108349
1177.8388,0.103985
1179.7024,0.100070
1181.5661,0.098398
1183.4298,0.099035
1185.2934,0.100388
1187.1571,0.100764
1189.0208,0.098774
1190.8844,0.093465
1192.7481,0.085904
1194.6118,0.079407
1196.4754,0.075722
1198.3391,0.074102
1200.2028,0.073386
1202.0665,0.073003
1203.9301,0.072760
1205.7938,0.072406
1207.6575,0.071760
1209.5211,0.071314
1211.3848,0.071437
1213.2485,0.071676
1215.1121,0.072017
1216.9758,0.072789
1218.8395,0.073694
1220.7031,0.074514
1222.5668,0.075510
1224.4305,0.076724
1226.2941,0.078101
1228.1578,0.079709
1230.0215,0.081430
1231.8852,0.083190
1233.7488,0.085217
1235.6125,0.087518
1237.4762,0.089452
1239.3398,0.090238
1241.2035,0.089391
1243.0672,0.087619
1244.9308,0.086446
1246.7945,0.086284
1248.6582,0.086426
1250.5218,0.086516
1252.3855,0.086813
1254.2492,0.087773
1256.1129,0.089265
1257.9765,0.090728
1259.8402,0.092254
1261.7039,0.093875
1263.5675,0.095745
1265.4312,0.098519
1267.2949,0.101988
1269.1585,0.104895
1271.0222,0.105027
1272.8859,0.101916
1274.7495,0.098870
1276.6132,0.098380
1278.4769,0.099993
1280.3405,0.102829
1282.2042,0.106185
1284.0679,0.109920
1285.9316,0.114391
1287.7952,0.120361
1289.6589,0.127790
1291.5226,0.136322
1293.3862,0.145055
1295.2499,0.151110
1297.1136,0.151403
1298.9772,0.147560
1300.8409,0.145391
1302.7046,0.148534
1304.5682,0.155407
1306.4319,0.161686
1308.2956,0.162443
1310.1592,0.156521
1312.0229,0.148908
1313.8866,0.143275
1315.7503,0.139930
1317.6139,0.138735
1319.4776,0.138022
1321.3413,0.137461
1323.2049,0.139679
1325.0686,0.145708
1326.9323,0.152633
1328.7959,0.155528
1330.6596,0.151222
1332.5233,0.142980
1334.3869,0.137467
1336.2506,0.138259
1338.1143,0.144484
1339.9780,0.152405
1341.8416,0.155137
1343.7053,0.154381
1345.5690,0.155280
1347.4326,0.159161
1349.2963,0.162903
1351.1600,0.162279
1353.0236,0.158733
1354.8873,0.157954
1356.7510,0.160194
1358.6146,0.161217
1360.4783,0.160504
1362.3420,0.160426
1364.2056,0.157829
1366.0693,0.154121
1367.9330,0.155918
1369.7967,0.162671
1371.6603,0.167603
1373.5240,0.169935
1375.3877,0.168915
1377.2513,0.169540
1379.1150,0.178455
1380.9787,0.192471
1382.8423,0.205152
1384.7060,0.215290
1386.5697,0.223255
1388.4333,0.226354
1390.2970,0.225572
1392.1607,0.227422
1394.0244,0.231939
1395.8880,0.232645
1397.7517,0.224523
1399.6154,0.213301
1401.4790,0.204510
1403.3427,0.200139
1405.2064,0.194052
1407.0700,0.181699
1408.9337,0.167168
1410.7974,0.153071
1412.6610,0.140758
1414.5247,0.131000
1416.3884,0.123758
1418.2520,0.120109
1420.1157,0.118032
1421.9794,0.114185
1423.8431,0.109265
1425.7067,0.100639
1427.5704,0.092196
1429.4341,0.086966
1431.2977,0.084767
1433.1614,0.084837
1435.0251,0.088740
1436.8887,0.098816
1438.7524,0.103224
1440.6161,0.100532
1442.4797,0.098592
1444.3434,0.098069
1446.2071,0.099793
1448.0707,0.104381
1449.9344,0.107753
1451.7981,0.108799
1453.6618,0.108933
1455.5254,0.109727
1457.3891,0.115817
1459.2528,0.115611
1461.1164,0.111792
1462.9801,0.112360
1464.8438,0.117774
1466.7074,0.120509
1468.5711,0.118326
1470.4348,0.116985
1472.2984,0.118494
1474.1621,0.117338
1476.0258,0.114042
1477.8895,0.112172
1479.7531,0.112772
1481.6168,0.116570
1483.4805,0.120504
1485.3441,0.123605
1487.2078,0.129371
1489.0715,0.139854
1490.9351,0.150148
1492.7988,0.151644
1494.6625,0.153498
1496.5261,0.162983
1498.3898,0.174358
1500.2535,0.178828
1502.1171,0.179997
1503.9808,0.180769
1505.8445,0.186692
1507.7082,0.202820
1509.5718,0.199527
1511.4355,0.193484
1513.2992,0.187800
1515.1628,0.181957
1517.0265,0.173791
1518.8902,0.162705
1520.7538,0.154860
1522.6175,0.143407
1524.4812,0.134386
1526.3448,0.128204
1528.2085,0.121590
1530.0722,0.116282
1531.9359,0.114774
1533.7995,0.116565
1535.6632,0.115187
1537.5269,0.113766
1539.3905,0.120746
1541.2542,0.138000
1543.1179,0.143564
1544.9815,0.149800
1546.8452,0.154903
1548.7089,0.160265
1550.5725,0.170709
1552.4362,0.178670
1554.2999,0.184731
1556.1635,0.191536
1558.0272,0.203294
1559.8909,0.233131
1561.7546,0.226787
1563.6182,0.222680
1565.4819,0.226022
1567.3456,0.230205
1569.2092,0.236231
1571.0729,0.241936
1572.9366,0.241553
1574.8002,0.243912
1576.6639,0.251133
1578.5276,0.252542
1580.3912,0.250865
1582.2549,0.249650
1584.1186,0.246211
1585.9822,0.239872
1587.8459,0.230866
1589.7096,0.220741
1591.5733,0.210847
1593.4369,0.202436
1595.3006,0.195443
1597.1643,0.190647
1599.0279,0.187960
1600.8916,0.187068
1602.7553,0.187371
1604.6189,0.188015
1606.4826,0.187307
1608.3463,0.184283
1610.2099,0.177928
1612.0736,0.169423
1613.9373,0.160194
1615.8010,0.151459
1617.6646,0.140870
1619.5283,0.134023
1621.3920,0.129926
1623.2556,0.124970
1625.1193,0.118510
1626.9830,0.112959
1628.8466,0.105650
1630.7103,0.097662
1632.5740,0.090630
1634.4376,0.084081
1636.3013,0.075555
1638.1650,0.068889
1640.0286,0.064960
1641.8923,0.061191
1643.7560,0.058139
1645.6197,0.056100
1647.4833,0.054356
1649.3470,0.053333
1651.2107,0.052956
1653.0743,0.054728
1654.9380,0.056649
1656.8017,0.055672
1658.6653,0.055238
1660.5290,0.054960
1662.3927,0.054501
1664.2563,0.053438
1666.1200,0.051884
1667.9837,0.050546
1669.8474,0.049513
1671.7110,0.049016
1673.5747,0.048950
1675.4384,0.049874
1677.3020,0.050828
1679.1657,0.051490
1681.0294,0.052898
1682.8930,0.054926
1684.7567,0.059036
1686.6204,0.060416
1688.4840,0.059503
1690.3477,0.058925
1692.2114,0.057484
1694.0750,0.055429
1695.9387,0.053096
1697.8024,0.050817
1699.6661,0.049270
1701.5297,0.045961
1703.3934,0.042502
1705.2571,0.038963
1707.1207,0.034385
1708.9844,0.031136
1710.8481,0.028595
1712.7117,0.026355
1714.5754,0.024687
1716.4391,0.023626
1718.3027,0.023560
1720.1664,0.023063
1722.0301,0.022121
1723.8937,0.021286
1725.7574,0.020182
1727.6211,0.018942
1729.4848,0.017990
1731.3484,0.017285
1733.2121,0.016897
1735.0758,0.016770
1736.9394,0.016141
1738.8031,0.015869
1740.6668,0.015837
1742.5304,0.015619
1744.3941,0.015458
1746.2578,0.015162
1748.1214,0.014649
1749.9851,0.014361
1751.8488,0.014264
1753.7125,0.013930
1755.5761,0.013506
1757.4398,0.013050
1759.3035,0.012526
1761.1671,0.012341
1763.0308,0.012418
1764.8945,0.012150
1766.7581,0.011887
1768.6218,0.011801
1770.4855,0.011545
1772.3491,0.011481
1774.2128,0.011574
1776.0765,0.011545
1777.9401,0.011432
1779.8038,0.011345
1781.6675,0.011417
1783.5312,0.011427
1785.3948,0.011472
1787.2585,0.011332
1789.1222,0.011107
1790.9858,0.011262
1792.8495,0.011370
1794.7132,0.011156
1796.5768,0.011161
1798.4405,0.011201
1800.3042,0.011042
1802.1678,0.010991
1804.0315,0.011011
1805.8952,0.010946
1807.7589,0.010944
1809.6225,0.010903
1811.4862,0.010902
1813.3499,0.010849
1815.2135,0.010601
1817.0772,0.010542
1818.9409,0.010743
1820.8045,0.010691
1822.6682,0.010401
1824.5319,0.010460
1826.3955,0.010559
1828.2592,0.010248
1830.1229,0.010179
1831.9865,0.010345
1833.8502,0.010340
1835.7139,0.010294
1837.5776,0.010299
1839.4412,0.010217
1841.3049,0.009966
1843.1686,0.009996
1845.0322,0.010271
1846.8959,0.010345
1848.7596,0.010342
1850.6232,0.010157
1852.4869,0.009959
1854.3506,0.010066
1856.2142,0.010269
1858.0779,0.010288
1859.9416,0.010296
1861.8052,0.010326
1863.6689,0.010184
1865.5326,0.009896
1867.3963,0.009648
1869.2599,0.009748
1871.1236,0.009804
1872.9873,0.009506
1874.8509,0.009452
1876.7146,0.009793
1878.5783,0.009974
1880.4419,0.009988
1882.3056,0.009912
1884.1693,0.009748
1886.0329,0.009648
1887.8966,0.009458
1889.7603,0.009431
1891.6240,0.009422
1893.4876,0.009351
1895.3513,0.009469
1897.2150,0.009326
1899.0786,0.009107
1900.9423,0.009297
1902.8060,0.009519
1904.6696,0.009655
1906.5333,0.009908
1908.3970,0.009928
1910.2606,0.009555
1912.1243,0.009249
1913.9880,0.009387
1915.8516,0.009438
1917.7153,0.009119
1919.5790,0.008847
1921.4427,0.008907
1923.3063,0.009174
1925.1700,0.009418
1927.0337,0.009272
1928.8973,0.008734
1930.7610,0.008477
1932.6247,0.009010
1934.4883,0.009298
1936.3520,0.008739
1938.2157,0.008375
1940.0793,0.008829
1941.9430,0.009064
1943.8067,0.008585
1945.6704,0.008050
1947.5340,0.007390
1949.3977,0.006996
1951.2614,0.007068
1953.1250,0.007147
1954.9887,0.006858
1956.8524,0.006382
1958.7160,0.006178
1960.5797,0.006403
1962.4434,0.005648
1964.3070,0.004311
1966.1707,0.004301
1968.0344,0.004747
1969.8980,0.004862
1971.7617,0.003833
1973.6254,0.002798
1975.4891,0.003372
1977.3527,0.004039
1979.2164,0.004299
1981.0801,0.005538
1982.9437,0.006278
1984.8074,0.005577
1986.6711,0.005999
1988.5347,0.006679
1990.3984,0.006249
1992.2621,0.005824
1994.1257,0.005893
1995.9894,0.006158
1997.8531,0.006183
1999.7167,0.006020
2001.5804,0.005697
2003.4441,0.006108
2005.3078,0.006605
2007.1714,0.005870
2009.0351,0.005402
2010.8988,0.005476
2012.7624,0.005320
2014.6261,0.005012
2016.4898,0.005056
2018.3534,0.005455
2020.2171,0.005286
2022.0808,0.005253
2023.9444,0.005335
2025.8081,0.004899
2027.6718,0.004677
2029.5355,0.005390
2031.3991,0.006675
2033.2628,0.006946
2035.1265,0.006830
2036.9901,0.007416
2038.8538,0.007453
2040.7175,0.007185
2042.5811,0.008014
2044.4448,0.007977
2046.3085,0.007551
2048.1721,0.009914
2050.0358,0.013023
2051.8995,0.012651
2053.7631,0.011156
2055.6268,0.012366
2057.4905,0.013633
2059.3542,0.012958
2061.2178,0.013079
2063.0815,0.013918
2064.9452,0.013945
2066.8088,0.013964
2068.6725,0.014709
2070.5362,0.015623
2072.3998,0.015645
2074.2635,0.015430
2076.1272,0.016095
2077.9908,0.016933
2079.8545,0.017176
2081.7182,0.017089
2083.5819,0.017504
2085.4455,0.018323
2087.3092,0.018615
2089.1729,0.018524
2091.0365,0.018552
2092.9002,0.019012
2094.7639,0.019607
2096.6275,0.019581
2098.4912,0.019473
2100.3549,0.019530
2102.2185,0.019850
2104.0822,0.020485
2105.9459,0.020530
2107.8095,0.020272
2109.6732,0.020380
2111.5369,0.020398
2113.4006,0.020985
2115.2642,0.021578
2117.1279,0.021154
2118.9916,0.020865
2120.8552,0.020647
2122.7189,0.020156
2124.5826,0.019684
2126.4462,0.019283
2128.3099,0.018889
2130.1736,0.018803
2132.0372,0.018506
2133.9009,0.017372
2135.7646,0.016778
2137.6282,0.016873
2139.4919,0.015571
2141.3556,0.014003
2143.2193,0.014264
2145.0829,0.014105
2146.9466,0.013434
2148.8103,0.013231
2150.6739,0.011410
2152.5376,0.009312
2154.4013,0.007709
2156.2649,0.007150
2158.1286,0.006722
2159.9923,0.005082
2161.8559,0.006768
2163.7196,0.009207
2165.5833,0.009381
2167.4470,0.009275
2169.3106,0.009659
2171.1743,0.009370
2173.0380,0.008798
2174.9016,0.008741
2176.7653,0.008654
2178.6290,0.007890
2180.4926,0.007673
2182.3563,0.008663
2184.2200,0.009748
2186.0836,0.010502
2187.9473,0.010833
2189.8110,0.011201
2191.6746,0.010806
2193.5383,0.010002
2195.4020,0.010557
2197.2657,0.011628
2199.1293,0.011138
2200.9930,0.010764
2202.8567,0.011522
2204.7203,0.010919
2206.5840,0.010549
2208.4477,0.010987
2210.3113,0.010774
2212.1750,0.010878
2214.0387,0.010786
2215.9023,0.010702
2217.7660,0.011546
2219.6297,0.012852
2221.4934,0.013606
2223.3570,0.013503
2225.2207,0.013106
2227.0844,0.012736
2228.9480,0.012817
2230.8117,0.013429
2232.6754,0.014259
2234.5390,0.014357
2236.4027,0.013741
2238.2664,0.013748
2240.1300,0.014514
2241.9937,0.014510
2243.8574,0.013760
2245.7210,0.014030
2247.5847,0.014842
2249.4484,0.014973
2251.3121,0.014615
2253.1757,0.014888
2255.0394,0.015208
2256.9031,0.015330
2258.7667,0.016090
2260.6304,0.017132
2262.4941,0.017522
2264.3577,0.016555
2266.2214,0.016028
2268.0851,0.016855
2269.9487,0.017236
2271.8124,0.017082
2273.6761,0.017488
2275.5397,0.017997
2277.4034,0.018622
2279.2671,0.019135
2281.1308,0.019348
2282.9944,0.019733
2284.8581,0.019960
2286.7218,0.020071
2288.5854,0.020265
2290.4491,0.020519
2292.3128,0.020481
2294.1764,0.020294
2296.0401,0.020267
2297.9038,0.020551
2299.7674,0.020721
2301.6311,0.020746
2303.4948,0.020923
2305.3585,0.020840
2307.2221,0.020598
2309.0858,0.020867
2310.9495,0.021183
2312.8131,0.021082
2314.6768,0.021095
2316.5405,0.021512
2318.4041,0.021937
2320.2678,0.022290
2322.1315,0.022683
2323.9951,0.022848
2325.8588,0.022549
2327.7225,0.021886
2329.5861,0.021337
2331.4498,0.021335
2333.3135,0.021530
2335.1772,0.021360
2337.0408,0.021470
2338.9045,0.022049
2340.7682,0.022009
2342.6318,0.021956
2344.4955,0.022605
2346.3592,0.022790
2348.2228,0.022068
2350.0865,0.021498
2351.9502,0.021286
2353.8138,0.021345
2355.6775,0.021817
2357.5412,0.022257
2359.4049,0.021840
2361.2685,0.021707
2363.1322,0.022383
2364.9959,0.022972
2366.8595,0.023246
2368.7232,0.023452
2370.5869,0.023627
2372.4505,0.024257
2374.3142,0.024727
2376.1779,0.024645
2378.0415,0.024467
2379.9052,0.024536
2381.7689,0.024551
2383.6325,0.024630
2385.4962,0.024783
2387.3599,0.024700
2389.2236,0.024464
2391.0872,0.024454
2392.9509,0.024712
2394.8146,0.025207
2396.6782,0.025680
2398.5419,0.025896
2400.4056,0.026013
2402.2692,0.026022
2404.1329,0.026297
2405.9966,0.026696
2407.8602,0.026691
2409.7239,0.026958
2411.5876,0.027603
2413.4512,0.028086
2415.3149,0.028167
2417.1786,0.028277
2419.0423,0.028434
2420.9059,0.028395
2422.7696,0.028304
2424.6333,0.028614
2426.4969,0.028905
2428.3606,0.029198
2430.2243,0.029470
2432.0879,0.029798
2433.9516,0.030170
2435.8153,0.030352
2437.6789,0.030520
2439.5426,0.030874
2441.4063,0.030757
2443.2700,0.030928
2445.1336,0.031495
2446.9973,0.031727
2448.8610,0.031403
2450.7246,0.031119
2452.5883,0.031359
2454.4520,0.031993
2456.3156,0.032221
2458.1793,0.031838
2460.0430,0.031733
2461.9066,0.031947
2463.7703,0.032367
2465.6340,0.032860
2467.4976,0.033060
2469.3613,0.033148
2471.2250,0.033255
2473.0887,0.033339
2474.9523,0.033516
2476.8160,0.034044
2478.6797,0.034496
2480.5433,0.034540
2482.4070,0.034531
2484.2707,0.034787
2486.1343,0.035169
2487.9980,0.035324
2489.8617,0.035665
2491.7253,0.036214
2493.5890,0.036545
2495.4527,0.037008
2497.3164,0.037635
2499.1800,0.038361
2501.0437,0.038567
2502.9074,0.038956
2504.7710,0.039420
2506.6347,0.039308
2508.4984,0.039064
2510.3620,0.039744
2512.2257,0.040563
2514.0894,0.041171
2515.9530,0.041751
2517.8167,0.042202
2519.6804,0.042312
2521.5440,0.042595
2523.4077,0.043349
2525.2714,0.044032
2527.1351,0.043923
