Wavenumber,Intensity
650.4205,0.173836
652.2841,0.170028
654.1478,0.167600
656.0115,0.163694
657.8751,0.160279
659.7388,0.156216
661.6025,0.153950
663.4661,0.153047
665.3298,0.153681
667.1935,0.155290
669.0571,0.154836
670.9208,0.152042
672.7845,0.151818
674.6481,0.152130
676.5118,0.152028
678.3755,0.151941
680.2392,0.152536
682.1028,0.152768
683.9665,0.154407
685.8302,0.154695
687.6938,0.152754
689.5575,0.152043
691.4212,0.152393
693.2848,0.152219
695.1485,0.153443
697.0122,0.154600
698.8758,0.153898
700.7395,0.153108
702.6032,0.152552
704.4669,0.149223
706.3305,0.145255
708.1942,0.140986
710.0579,0.134965
711.9215,0.128260
713.7852,0.121750
715.6489,0.115412
717.5125,0.110406
719.3762,0.106227
721.2399,0.102128
723.1035,0.097984
724.9672,0.093857
726.8309,0.089639
728.6945,0.086279
730.5582,0.083598
732.4219,0.080969
734.2856,0.078112
736.1492,0.075889
738.0129,0.074724
739.8766,0.074949
741.7402,0.077083
743.6039,0.078951
745.4676,0.079545
747.3312,0.080180
749.1949,0.080012
751.0586,0.078776
752.9222,0.077924
754.7859,0.077471
756.6496,0.076336
758.5132,0.075529
760.3769,0.075621
762.2406,0.075472
764.1043,0.074964
765.9679,0.074767
767.8316,0.075101
769.6953,0.075308
771.5589,0.075460
773.4226,0.076098
775.2863,0.076567
777.1499,0.077209
779.0136,0.078259
780.8773,0.079156
782.7409,0.080444
784.6046,0.082377
786.4683,0.083921
788.3320,0.085252
790.1956,0.086786
792.0593,0.088764
793.9230,0.090934
795.7866,0.093012
797.6503,0.094934
799.5140,0.096365
801.3776,0.097196
803.2413,0.097774
805.1050,0.098026
806.9686,0.097502
808.8323,0.096302
810.6960,0.094713
812.5596,0.092588
814.4233,0.090070
816.2870,0.087496
818.1507,0.085271
820.0143,0.083381
821.8780,0.082125
823.7417,0.081736
825.6053,0.082228
827.4690,0.083836
829.3327,0.084826
831.1963,0.080429
833.0600,0.070271
834.9237,0.060589
836.7873,0.055024
838.6510,0.052397
840.5147,0.050960
842.3784,0.050019
844.2420,0.049410
846.1057,0.048932
847.9694,0.048432
849.8330,0.047912
851.6967,0.047201
853.5604,0.046440
855.4240,0.045798
857.2877,0.045319
859.1514,0.045019
861.0150,0.044965
862.8787,0.044945
864.7424,0.044829
866.6060,0.044692
868.4697,0.044551
870.3334,0.044544
872.1971,0.044634
874.0607,0.044819
875.9244,0.045079
877.7881,0.045272
879.6517,0.045525
881.5154,0.045694
883.3791,0.045758
885.2427,0.046051
887.1064,0.046492
888.9701,0.046926
890.8337,0.047553
892.6974,0.048250
894.5611,0.048802
896.4247,0.049547
898.2884,0.050657
900.1521,0.052046
902.0158,0.053715
903.8794,0.055894
905.7431,0.059048
907.6068,0.063069
909.4704,0.067504
911.3341,0.072655
913.1978,0.078996
915.0614,0.082968
916.9251,0.077827
918.7888,0.065141
920.6524,0.054072
922.5161,0.048384
924.3798,0.046174
926.2435,0.045477
928.1071,0.045466
929.9708,0.045801
931.8345,0.046252
933.6981,0.046837
935.5618,0.047413
937.4255,0.047818
939.2891,0.048328
941.1528,0.048862
943.0165,0.049431
944.8801,0.050110
946.7438,0.050766
948.6075,0.051514
950.4711,0.052403
952.3348,0.053223
954.1985,0.054045
956.0622,0.055047
957.9258,0.056076
959.7895,0.057130
961.6532,0.058242
963.5168,0.059383
965.3805,0.060882
967.2442,0.062861
969.1078,0.065139
970.9715,0.067569
972.8352,0.070374
974.6988,0.074784
976.5625,0.082543
978.4262,0.095782
980.2899,0.114737
982.1535,0.124411
984.0172,0.105899
985.8809,0.076939
987.7445,0.061663
989.6082,0.057817
991.4719,0.057092
993.3355,0.057179
995.1992,0.057601
997.0629,0.058119
998.9265,0.058653
1000.7902,0.059142
1002.6539,0.059593
1004.5175,0.060064
1006.3812,0.060522
1008.2449,0.060927
1010.1086,0.061273
1011.9722,0.061511
1013.8359,0.061975
1015.6996,0.062809
1017.5632,0.063731
1019.4269,0.064621
1021.2906,0.065537
1023.1542,0.066651
1025.0179,0.067960
1026.8816,0.069426
1028.7452,0.071134
1030.6089,0.072857
1032.4726,0.074041
1034.3362,0.074661
1036.1999,0.075627
1038.0636,0.077554
1039.9273,0.080247
1041.7909,0.083532
1043.6546,0.087373
1045.5183,0.091306
1047.3819,0.094086
1049.2456,0.094196
1051.1093,0.090354
1052.9729,0.083122
1054.8366,0.075576
1056.7003,0.070158
1058.5639,0.067319
1060.4276,0.066429
1062.2913,0.066511
1064.1550,0.067055
1066.0186,0.067912
1067.8823,0.069076
1069.7460,0.070561
1071.6096,0.072229
1073.4733,0.073971
1075.3370,0.075751
1077.2006,0.077668
1079.0643,0.079815
1080.9280,0.082076
1082.7916,0.084552
1084.6553,0.087256
1086.5190,0.090083
1088.3826,0.093289
1090.2463,0.096903
1092.1100,0.100798
1093.9737,0.105049
1095.8373,0.109790
1097.7010,0.114984
1099.5647,0.120484
1101.4283,0.126043
1103.2920,0.131140
1105.1557,0.134885
1107.0193,0.135895
1108.8830,0.132929
1110.7467,0.125896
1112.6103,0.116202
1114.4740,0.105757
1116.3377,0.095930
1118.2014,0.087570
1120.0650,0.081157
1121.9287,0.076746
1123.7924,0.073850
1125.6560,0.071653
1127.5197,0.069623
1129.3834,0.067637
1131.2470,0.065698
1133.1107,0.063979
1134.9744,0.062685
1136.8380,0.061772
1138.7017,0.061167
1140.5654,0.060859
1142.4290,0.060743
1144.2927,0.060810
1146.1564,0.061065
1148.0201,0.061279
1149.8837,0.061400
1151.7474,0.061775
1153.6111,0.062477
1155.4747,0.063243
1157.3384,0.064092
1159.2021,0.065157
1161.0657,0.066515
1162.9294,0.068323
1164.7931,0.070665
1166.6567,0.073570
1168.5204,0.077011
1170.3841,0.080663
1172.2477,0.083441
1174.1114,0.083582
1175.9751,0.080494
1177.8388,0.075819
1179.7024,0.071586
1181.5661,0.068818
1183.4298,0.067453
1185.2934,0.066890
1187.1571,0.066718
1189.0208,0.066621
1190.8844,0.066508
1192.7481,0.066398
1194.6118,0.066360
1196.4754,0.066504
1198.3391,0.066687
1200.2028,0.066881
1202.0665,0.067229
1203.9301,0.067593
1205.7938,0.067977
1207.6575,0.068402
1209.5211,0.068742
1211.3848,0.069096
1213.2485,0.069459
1215.1121,0.069819
1216.9758,0.070238
1218.8395,0.070641
1220.7031,0.071004
1222.5668,0.071427
1224.4305,0.071916
1226.2941,0.072375
1228.1578,0.072714
1230.0215,0.072965
1231.8852,0.073322
1233.7488,0.073808
1235.6125,0.074326
1237.4762,0.074828
1239.3398,0.075330
1241.2035,0.075900
1243.0672,0.076470
1244.9308,0.077038
1246.7945,0.077677
1248.6582,0.078365
1250.5218,0.079044
1252.3855,0.079790
1254.2492,0.080587
1256.1129,0.081291
1257.9765,0.082068
1259.8402,0.083091
1261.7039,0.084215
1263.5675,0.085272
1265.4312,0.086171
1267.2949,0.086760
1269.1585,0.086969
1271.0222,0.086910
1272.8859,0.086887
1274.7495,0.087110
1276.6132,0.087701
1278.4769,0.088667
1280.3405,0.089765
1282.2042,0.090986
1284.0679,0.092490
1285.9316,0.094310
1287.7952,0.096473
1289.6589,0.098858
1291.5226,0.101499
1293.3862,0.104690
1295.2499,0.108532
1297.1136,0.112981
1298.9772,0.118218
1300.8409,0.124602
1302.7046,0.131383
1304.5682,0.136313
1306.4319,0.136327
1308.2956,0.128103
1310.1592,0.111753
1312.0229,0.093559
1313.8866,0.080208
1315.7503,0.074123
1317.6139,0.073032
1319.4776,0.074123
1321.3413,0.075902
1323.2049,0.077951
1325.0686,0.080327
1326.9323,0.082776
1328.7959,0.085086
1330.6596,0.087348
1332.5233,0.089372
1334.3869,0.090792
1336.2506,0.091853
1338.1143,0.093403
1339.9780,0.095233
1341.8416,0.095875
1343.7053,0.096020
1345.5690,0.096682
1347.4326,0.097523
1349.2963,0.098601
1351.1600,0.099925
1353.0236,0.101485
1354.8873,0.103424
1356.7510,0.105355
1358.6146,0.107171
1360.4783,0.109781
1362.3420,0.113723
1364.2056,0.117079
1366.0693,0.118979
1367.9330,0.121889
1369.7967,0.125313
1371.6603,0.128260
1373.5240,0.132127
1375.3877,0.136183
1377.2513,0.138915
1379.1150,0.142435
1380.9787,0.146697
1382.8423,0.151126
1384.7060,0.156134
1386.5697,0.162206
1388.4333,0.168003
1390.2970,0.171074
1392.1607,0.173316
1394.0244,0.174132
1395.8880,0.169630
1397.7517,0.162519
1399.6154,0.154174
1401.4790,0.145883
1403.3427,0.139442
1405.2064,0.129358
1407.0700,0.114757
1408.9337,0.100237
1410.7974,0.086321
1412.6610,0.075558
1414.5247,0.070022
1416.3884,0.069115
1418.2520,0.072888
1420.1157,0.080359
1421.9794,0.084800
1423.8431,0.084136
1425.7067,0.077079
1427.5704,0.068613
1429.4341,0.062984
1431.2977,0.060230
1433.1614,0.059800
1435.0251,0.061260
1436.8887,0.064600
1438.7524,0.066676
1440.6161,0.067646
1442.4797,0.069450
1444.3434,0.071270
1446.2071,0.072838
1448.0707,0.073630
1449.9344,0.072297
1451.7981,0.069661
1453.6618,0.066947
1455.5254,0.066286
1457.3891,0.069080
1459.2528,0.069472
1461.1164,0.068236
1462.9801,0.068531
1464.8438,0.069302
1466.7074,0.068312
1468.5711,0.066494
1470.4348,0.065885
1472.2984,0.066858
1474.1621,0.067454
1476.0258,0.066875
1477.8895,0.066613
1479.7531,0.066323
1481.6168,0.066630
1483.4805,0.066861
1485.3441,0.067020
1487.2078,0.067960
1489.0715,0.069949
1490.9351,0.071286
1492.7988,0.070822
1494.6625,0.071008
1496.5261,0.073362
1498.3898,0.075324
1500.2535,0.075401
1502.1171,0.075076
1503.9808,0.075455
1505.8445,0.078401
1507.7082,0.084351
1509.5718,0.083387
1511.4355,0.082755
1513.2992,0.083470
1515.1628,0.084693
1517.0265,0.086404
1518.8902,0.087806
1520.7538,0.089797
1522.6175,0.092376
1524.4812,0.092328
1526.3448,0.093398
1528.2085,0.094188
1530.0722,0.094435
1531.9359,0.095867
1533.7995,0.098261
1535.6632,0.098284
1537.5269,0.098595
1539.3905,0.102599
1541.2542,0.108172
1543.1179,0.108565
1544.9815,0.109496
1546.8452,0.110473
1548.7089,0.112179
1550.5725,0.114735
1552.4362,0.116520
1554.2999,0.118093
1556.1635,0.121166
1558.0272,0.127535
1559.8909,0.135115
1561.7546,0.131122
1563.6182,0.131115
1565.4819,0.133649
1567.3456,0.136606
1569.2092,0.140090
1571.0729,0.142449
1572.9366,0.143522
1574.8002,0.147594
1576.6639,0.152685
1578.5276,0.153551
1580.3912,0.154433
1582.2549,0.156803
1584.1186,0.158590
1585.9822,0.159832
1587.8459,0.160521
1589.7096,0.160845
1591.5733,0.160368
1593.4369,0.159517
1595.3006,0.158099
1597.1643,0.156202
1599.0279,0.154224
1600.8916,0.152354
1602.7553,0.150300
1604.6189,0.148242
1606.4826,0.146605
1608.3463,0.145167
1610.2099,0.143095
1612.0736,0.140569
1613.9373,0.138534
1615.8010,0.136464
1617.6646,0.129474
1619.5283,0.121698
1621.3920,0.117918
1623.2556,0.113027
1625.1193,0.105450
1626.9830,0.098748
1628.8466,0.091081
1630.7103,0.083052
1632.5740,0.077246
1634.4376,0.072252
1636.3013,0.065571
1638.1650,0.059512
1640.0286,0.057505
1641.8923,0.056409
1643.7560,0.056572
1645.6197,0.058033
1647.4833,0.060344
1649.3470,0.061947
1651.2107,0.064763
1653.0743,0.069927
1654.9380,0.072308
1656.8017,0.071964
1658.6653,0.073220
1660.5290,0.074256
1662.3927,0.074377
1664.2563,0.072728
1666.1200,0.071450
1667.9837,0.070881
1669.8474,0.069696
1671.7110,0.068334
1673.5747,0.068673
1675.4384,0.069957
1677.3020,0.071718
1679.1657,0.073743
1681.0294,0.077321
1682.8930,0.081714
1684.7567,0.085797
1686.6204,0.085646
1688.4840,0.085413
1690.3477,0.084422
1692.2114,0.082449
1694.0750,0.081033
1695.9387,0.079098
1697.8024,0.074812
1699.6661,0.072494
1701.5297,0.065387
1703.3934,0.059124
1705.2571,0.053377
1707.1207,0.044925
1708.9844,0.038547
1710.8481,0.034024
1712.7117,0.030404
1714.5754,0.028347
1716.4391,0.026490
1718.3027,0.024972
1720.1664,0.023553
1722.0301,0.022912
1723.8937,0.021632
1725.7574,0.019870
1727.6211,0.018034
1729.4848,0.016593
1731.3484,0.015178
1733.2121,0.014145
1735.0758,0.012668
1736.9394,0.012082
1738.8031,0.011830
1740.6668,0.011472
1742.5304,0.010959
1744.3941,0.010759
1746.2578,0.010348
1748.1214,0.009921
1749.9851,0.009389
1751.8488,0.009112
1753.7125,0.008778
1755.5761,0.008899
1757.4398,0.008668
1759.3035,0.008409
1761.1671,0.008434
1763.0308,0.008565
1764.8945,0.008389
1766.7581,0.008410
1768.6218,0.008121
1770.4855,0.007958
1772.3491,0.007877
1774.2128,0.007853
1776.0765,0.007677
1777.9401,0.007779
1779.8038,0.007970
1781.6675,0.008047
1783.5312,0.007896
1785.3948,0.008047
1787.2585,0.008026
1789.1222,0.007947
1790.9858,0.007959
1792.8495,0.008079
1794.7132,0.007881
1796.5768,0.007871
1798.4405,0.007768
1800.3042,0.007928
1802.1678,0.008031
1804.0315,0.008138
1805.8952,0.008074
1807.7589,0.008249
1809.6225,0.008202
1811.4862,0.008080
1813.3499,0.008005
1815.2135,0.008166
1817.0772,0.008161
1818.9409,0.008252
1820.8045,0.008324
1822.6682,0.008258
1824.5319,0.008018
1826.3955,0.008069
1828.2592,0.008016
1830.1229,0.008037
1831.9865,0.007767
1833.8502,0.007804
1835.7139,0.007634
1837.5776,0.007492
1839.4412,0.007532
1841.3049,0.007799
1843.1686,0.007679
1845.0322,0.007604
1846.8959,0.007569
1848.7596,0.007709
1850.6232,0.007656
1852.4869,0.007756
1854.3506,0.007871
1856.2142,0.008060
1858.0779,0.007981
1859.9416,0.007773
1861.8052,0.007434
1863.6689,0.007613
1865.5326,0.007753
1867.3963,0.007997
1869.2599,0.008067
1871.1236,0.008114
1872.9873,0.007705
1874.8509,0.007750
1876.7146,0.007654
1878.5783,0.007815
1880.4419,0.008023
1882.3056,0.008068
1884.1693,0.007875
1886.0329,0.008144
1887.8966,0.008209
1889.7603,0.008269
1891.6240,0.008260
1893.4876,0.008232
1895.3513,0.007835
1897.2150,0.007840
1899.0786,0.007939
1900.9423,0.008551
1902.8060,0.008995
1904.6696,0.008867
1906.5333,0.008257
1908.3970,0.008422
1910.2606,0.008736
1912.1243,0.009011
1913.9880,0.008908
1915.8516,0.009069
1917.7153,0.009090
1919.5790,0.008916
1921.4427,0.008257
1923.3063,0.008060
1925.1700,0.008218
1927.0337,0.008402
1928.8973,0.008261
1930.7610,0.008485
1932.6247,0.008150
1934.4883,0.008157
1936.3520,0.008329
1938.2157,0.008314
1940.0793,0.007120
1941.9430,0.006605
1943.8067,0.006435
1945.6704,0.007053
1947.5340,0.007156
1949.3977,0.006567
1951.2614,0.005734
1953.1250,0.006134
1954.9887,0.006147
1956.8524,0.005971
1958.7160,0.005782
1960.5797,0.005788
1962.4434,0.003885
1964.3070,0.003067
1966.1707,0.002257
1968.0344,0.001778
1969.8980,0.001365
1971.7617,0.001514
1973.6254,0.001485
1975.4891,0.003037
1977.3527,0.003078
1979.2164,0.004181
1981.0801,0.004817
1982.9437,0.004553
1984.8074,0.004030
1986.6711,0.005180
1988.5347,0.005988
1990.3984,0.006077
1992.2621,0.004808
1994.1257,0.003891
1995.9894,0.004429
1997.8531,0.005976
1999.7167,0.005558
2001.5804,0.005390
2003.4441,0.004519
2005.3078,0.004330
2007.1714,0.004581
2009.0351,0.005032
2010.8988,0.004652
2012.7624,0.005550
2014.6261,0.005155
2016.4898,0.004881
2018.3534,0.004220
2020.2171,0.003582
2022.0808,0.002733
2023.9444,0.002952
2025.8081,0.002884
2027.6718,0.002484
2029.5355,0.002482
2031.3991,0.003650
2033.2628,0.003877
2035.1265,0.005484
2036.9901,0.005908
2038.8538,0.005642
2040.7175,0.005158
2042.5811,0.005107
2044.4448,0.005335
2046.3085,0.006829
2048.1721,0.007038
2050.0358,0.007353
2051.8995,0.007462
2053.7631,0.007636
2055.6268,0.007974
2057.4905,0.008577
2059.3542,0.008950
2061.2178,0.008638
2063.0815,0.007812
2064.9452,0.008575
2066.8088,0.008929
2068.6725,0.008876
2070.5362,0.008878
2072.3998,0.008992
2074.2635,0.008623
2076.1272,0.009219
2077.9908,0.009660
2079.8545,0.009985
2081.7182,0.009893
2083.5819,0.009902
2085.4455,0.009462
2087.3092,0.009705
2089.1729,0.009894
2091.0365,0.009648
2092.9002,0.009473
2094.7639,0.010049
2096.6275,0.010273
2098.4912,0.010187
2100.3549,0.009709
2102.2185,0.009787
2104.0822,0.009524
2105.9459,0.009485
2107.8095,0.010084
2109.6732,0.010554
2111.5369,0.011113
2113.4006,0.011539
2115.2642,0.010811
2117.1279,0.010508
2118.9916,0.010264
2120.8552,0.010100
2122.7189,0.010002
2124.5826,0.010085
2126.4462,0.010086
2128.3099,0.009886
2130.1736,0.008680
2132.0372,0.008087
2133.9009,0.007710
2135.7646,0.008293
2137.6282,0.009135
2139.4919,0.008945
2141.3556,0.008239
2143.2193,0.007138
2145.0829,0.006691
2146.9466,0.007088
2148.8103,0.007398
2150.6739,0.007445
2152.5376,0.006712
2154.4013,0.006639
2156.2649,0.006090
2158.1286,0.004333
2159.9923,0.003864
2161.8559,0.005584
2163.7196,0.005713
2165.5833,0.006339
2167.4470,0.007122
2169.3106,0.007123
2171.1743,0.005825
2173.0380,0.006694
2174.9016,0.007751
2176.7653,0.007814
2178.6290,0.008122
2180.4926,0.008020
2182.3563,0.006955
2184.2200,0.007306
2186.0836,0.006217
2187.9473,0.005727
2189.8110,0.007328
2191.6746,0.009052
2193.5383,0.008742
2195.4020,0.008779
2197.2657,0.009277
2199.1293,0.010027
2200.9930,0.010049
2202.8567,0.009685
2204.7203,0.009498
2206.5840,0.009632
2208.4477,0.009453
2210.3113,0.010642
2212.1750,0.011143
2214.0387,0.010283
2215.9023,0.010070
2217.7660,0.011878
2219.6297,0.012281
2221.4934,0.011675
2223.3570,0.011048
2225.2207,0.011380
2227.0844,0.012536
2228.9480,0.012420
2230.8117,0.011725
2232.6754,0.012499
2234.5390,0.012698
2236.4027,0.012850
2238.2664,0.013544
2240.1300,0.013817
2241.9937,0.012922
2243.8574,0.012628
2245.7210,0.013037
2247.5847,0.013850
2249.4484,0.014252
2251.3121,0.014089
2253.1757,0.012921
2255.0394,0.013114
2256.9031,0.013966
2258.7667,0.013982
2260.6304,0.014224
2262.4941,0.014325
2264.3577,0.013983
2266.2214,0.014780
2268.0851,0.015540
2269.9487,0.016035
2271.8124,0.016085
2273.6761,0.015856
2275.5397,0.015934
2277.4034,0.016665
2279.2671,0.016996
2281.1308,0.016990
2282.9944,0.017242
2284.8581,0.017899
2286.7218,0.017790
2288.5854,0.017567
2290.4491,0.017511
2292.3128,0.017597
2294.1764,0.017424
2296.0401,0.017112
2297.9038,0.017384
2299.7674,0.017750
2301.6311,0.017490
2303.4948,0.017596
2305.3585,0.017645
2307.2221,0.017512
2309.0858,0.017598
2310.9495,0.017913
2312.8131,0.018430
2314.6768,0.018370
2316.5405,0.017896
2318.4041,0.018001
2320.2678,0.018386
2322.1315,0.018393
2323.9951,0.018319
2325.8588,0.018148
2327.7225,0.017244
2329.5861,0.016675
2331.4498,0.016380
2333.3135,0.016458
2335.1772,0.016599
2337.0408,0.016617
2338.9045,0.016645
2340.7682,0.016466
2342.6318,0.016614
2344.4955,0.017265
2346.3592,0.017157
2348.2228,0.016726
2350.0865,0.016498
2351.9502,0.016664
2353.8138,0.016697
2355.6775,0.016719
2357.5412,0.016655
2359.4049,0.016483
2361.2685,0.016592
2363.1322,0.016395
2364.9959,0.016164
2366.8595,0.016408
2368.7232,0.016564
2370.5869,0.016982
2372.4505,0.017515
2374.3142,0.017617
2376.1779,0.017584
2378.0415,0.017832
2379.9052,0.017744
2381.7689,0.017668
2383.6325,0.017865
2385.4962,0.017921
2387.3599,0.017677
2389.2236,0.017653
2391.0872,0.017685
2392.9509,0.017765
2394.8146,0.017754
2396.6782,0.017683
2398.5419,0.017634
2400.4056,0.018054
2402.2692,0.018646
2404.1329,0.018603
2405.9966,0.018294
2407.8602,0.018358
2409.7239,0.018342
2411.5876,0.018327
2413.4512,0.018281
2415.3149,0.018393
2417.1786,0.018553
2419.0423,0.018833
2420.9059,0.018776
2422.7696,0.019158
2424.6333,0.019145
2426.4969,0.018953
2428.3606,0.019149
2430.2243,0.019552
2432.0879,0.019667
2433.9516,0.019896
2435.8153,0.019994
2437.6789,0.019807
2439.5426,0.019455
2441.4063,0.019374
2443.2700,0.019388
2445.1336,0.019329
2446.9973,0.019380
2448.8610,0.019672
2450.7246,0.019616
2452.5883,0.019579
2454.4520,0.019477
2456.3156,0.019490
2458.1793,0.019757
2460.0430,0.019593
2461.9066,0.019132
2463.7703,0.018742
2465.6340,0.018515
2467.4976,0.018795
2469.3613,0.019226
2471.2250,0.019061
2473.0887,0.018667
2474.9523,0.018614
2476.8160,0.019047
2478.6797,0.019249
2480.5433,0.019292
2482.4070,0.019552
2484.2707,0.019463
2486.1343,0.019061
2487.9980,0.019151
2489.8617,0.019798
2491.7253,0.020062
2493.5890,0.019825
2495.4527,0.019809
2497.3164,0.020519
2499.1800,0.020733
2501.0437,0.020436
2502.9074,0.020533
2504.7710,0.020925
2506.6347,0.021023
2508.4984,0.020745
2510.3620,0.020756
2512.2257,0.021056
2514.0894,0.020867
2515.9530,0.020544
2517.8167,0.020475
2519.6804,0.020889
2521.5440,0.021368
2523.4077,0.021325
2525.2714,0.021402
2527.1351,0.021536
