Wavenumber,Intensity
650.4205,0.204900
652.2841,0.205784
654.1478,0.201996
656.0115,0.197219
657.8751,0.191085
659.7388,0.181625
661.6025,0.178296
663.4661,0.178122
665.3298,0.177287
667.1935,0.177111
669.0571,0.177996
670.9208,0.178807
672.7845,0.180023
674.6481,0.180282
676.5118,0.181601
678.3755,0.183721
680.2392,0.185461
682.1028,0.184737
683.9665,0.183357
685.8302,0.182403
687.6938,0.181580
689.5575,0.179509
691.4212,0.178865
693.2848,0.178397
695.1485,0.178036
697.0122,0.176267
698.8758,0.172123
700.7395,0.167781
702.6032,0.164936
704.4669,0.161437
706.3305,0.155620
708.1942,0.148315
710.0579,0.140553
711.9215,0.131969
713.7852,0.124189
715.6489,0.117565
717.5125,0.111365
719.3762,0.104853
721.2399,0.098968
723.1035,0.094072
724.9672,0.089860
726.8309,0.085919
728.6945,0.082221
730.5582,0.079409
732.4219,0.077445
734.2856,0.075138
736.1492,0.073096
738.0129,0.071942
739.8766,0.072357
741.7402,0.074556
743.6039,0.076707
745.4676,0.077677
747.3312,0.077952
749.1949,0.077820
751.0586,0.077691
752.9222,0.077514
754.7859,0.077428
756.6496,0.077488
758.5132,0.077377
760.3769,0.077394
762.2406,0.077731
764.1043,0.078135
765.9679,0.078724
767.8316,0.079521
769.6953,0.080780
771.5589,0.081827
773.4226,0.082765
775.2863,0.083993
777.1499,0.085456
779.0136,0.086894
780.8773,0.088692
782.7409,0.091007
784.6046,0.093164
786.4683,0.095140
788.3320,0.097602
790.1956,0.100305
792.0593,0.103015
793.9230,0.105857
795.7866,0.108767
797.6503,0.111327
799.5140,0.113825
801.3776,0.115934
803.2413,0.117476
805.1050,0.118518
806.9686,0.119093
808.8323,0.119282
810.6960,0.118977
812.5596,0.117147
814.4233,0.114627
816.2870,0.112977
818.1507,0.112352
820.0143,0.112089
821.8780,0.112226
823.7417,0.113073
825.6053,0.114918
827.4690,0.117613
829.3327,0.118927
831.1963,0.113990
833.0600,0.102289
834.9237,0.090450
836.7873,0.082863
838.6510,0.077997
840.5147,0.074500
842.3784,0.071940
844.2420,0.070252
846.1057,0.069432
847.9694,0.068782
849.8330,0.067331
851.6967,0.064626
853.5604,0.061811
855.4240,0.060202
857.2877,0.059629
859.1514,0.059377
861.0150,0.059195
862.8787,0.059238
864.7424,0.059331
866.6060,0.059560
868.4697,0.059973
870.3334,0.060191
872.1971,0.060500
874.0607,0.060867
875.9244,0.061068
877.7881,0.061512
879.6517,0.062186
881.5154,0.062677
883.3791,0.063162
885.2427,0.063744
887.1064,0.064321
888.9701,0.064877
890.8337,0.065449
892.6974,0.066213
894.5611,0.067088
896.4247,0.068126
898.2884,0.069311
900.1521,0.070655
902.0158,0.072364
903.8794,0.074719
905.7431,0.077879
907.6068,0.081447
909.4704,0.085410
911.3341,0.090364
913.1978,0.096153
915.0614,0.099063
916.9251,0.093242
918.7888,0.081437
920.6524,0.072332
922.5161,0.068561
924.3798,0.067734
926.2435,0.067864
928.1071,0.068338
929.9708,0.069106
931.8345,0.070047
933.6981,0.070829
935.5618,0.071501
937.4255,0.072333
939.2891,0.073223
941.1528,0.074095
943.0165,0.074917
944.8801,0.075787
946.7438,0.076812
948.6075,0.077890
950.4711,0.079126
952.3348,0.080405
954.1985,0.081596
956.0622,0.082883
957.9258,0.084391
959.7895,0.085929
961.6532,0.087486
963.5168,0.089366
965.3805,0.091455
967.2442,0.093694
969.1078,0.096397
970.9715,0.099301
972.8352,0.102449
974.6988,0.107298
976.5625,0.115370
978.4262,0.128428
980.2899,0.145872
982.1535,0.152202
984.0172,0.131713
985.8809,0.104663
987.7445,0.092386
989.6082,0.090321
991.4719,0.090182
993.3355,0.090182
995.1992,0.090083
997.0629,0.089843
998.9265,0.089558
1000.7902,0.089125
1002.6539,0.088679
1004.5175,0.088313
1006.3812,0.087919
1008.2449,0.087479
1010.1086,0.087028
1011.9722,0.086692
1013.8359,0.086622
1015.6996,0.086794
1017.5632,0.087080
1019.4269,0.087570
1021.2906,0.088383
1023.1542,0.089503
1025.0179,0.090986
1026.8816,0.092985
1028.7452,0.095392
1030.6089,0.097036
1032.4726,0.095907
1034.3362,0.092331
1036.1999,0.089771
1038.0636,0.090265
1039.9273,0.093149
1041.7909,0.097332
1043.6546,0.101894
1045.5183,0.105513
1047.3819,0.106249
1049.2456,0.103380
1051.1093,0.097907
1052.9729,0.091326
1054.8366,0.085674
1056.7003,0.082450
1058.5639,0.081406
1060.4276,0.081523
1062.2913,0.082009
1064.1550,0.082670
1066.0186,0.083641
1067.8823,0.084926
1069.7460,0.086350
1071.6096,0.087905
1073.4733,0.089559
1075.3370,0.091185
1077.2006,0.092961
1079.0643,0.094848
1080.9280,0.096805
1082.7916,0.098950
1084.6553,0.101380
1086.5190,0.104112
1088.3826,0.107096
1090.2463,0.110372
1092.1100,0.114042
1093.9737,0.118223
1095.8373,0.122903
1097.7010,0.128044
1099.5647,0.133589
1101.4283,0.139245
1103.2920,0.144351
1105.1557,0.147967
1107.0193,0.148784
1108.8830,0.145694
1110.7467,0.138876
1112.6103,0.129505
1114.4740,0.119450
1116.3377,0.110416
1118.2014,0.103111
1120.0650,0.097768
1121.9287,0.094162
1123.7924,0.091843
1125.6560,0.090145
1127.5197,0.088498
1129.3834,0.086945
1131.2470,0.085514
1133.1107,0.084112
1134.9744,0.082939
1136.8380,0.082165
1138.7017,0.081726
1140.5654,0.081567
1142.4290,0.081675
1144.2927,0.081914
1146.1564,0.082130
1148.0201,0.082375
1149.8837,0.082732
1151.7474,0.083115
1153.6111,0.083596
1155.4747,0.084358
1157.3384,0.085333
1159.2021,0.086497
1161.0657,0.087890
1162.9294,0.089562
1164.7931,0.091621
1166.6567,0.094232
1168.5204,0.097426
1170.3841,0.100640
1172.2477,0.102853
1174.1114,0.102760
1175.9751,0.099800
1177.8388,0.095574
1179.7024,0.092156
1181.5661,0.090159
1183.4298,0.089362
1185.2934,0.089340
1187.1571,0.089476
1189.0208,0.089464
1190.8844,0.089340
1192.7481,0.089147
1194.6118,0.089028
1196.4754,0.089074
1198.3391,0.089249
1200.2028,0.089548
1202.0665,0.089846
1203.9301,0.090068
1205.7938,0.090366
1207.6575,0.090759
1209.5211,0.091066
1211.3848,0.091398
1213.2485,0.091792
1215.1121,0.092099
1216.9758,0.092415
1218.8395,0.092747
1220.7031,0.093007
1222.5668,0.093289
1224.4305,0.093670
1226.2941,0.093978
1228.1578,0.094207
1230.0215,0.094593
1231.8852,0.094945
1233.7488,0.095254
1235.6125,0.095654
1237.4762,0.096045
1239.3398,0.096520
1241.2035,0.097056
1243.0672,0.097534
1244.9308,0.098009
1246.7945,0.098513
1248.6582,0.099094
1250.5218,0.099701
1252.3855,0.100302
1254.2492,0.100882
1256.1129,0.101408
1257.9765,0.102048
1259.8402,0.102905
1261.7039,0.103798
1263.5675,0.104674
1265.4312,0.105429
1267.2949,0.105761
1269.1585,0.105697
1271.0222,0.105441
1272.8859,0.105219
1274.7495,0.105215
1276.6132,0.105485
1278.4769,0.106031
1280.3405,0.106765
1282.2042,0.107712
1284.0679,0.108802
1285.9316,0.110155
1287.7952,0.111931
1289.6589,0.113887
1291.5226,0.116153
1293.3862,0.119044
1295.2499,0.122528
1297.1136,0.126734
1298.9772,0.131636
1300.8409,0.137399
1302.7046,0.143401
1304.5682,0.147222
1306.4319,0.145630
1308.2956,0.135691
1310.1592,0.118375
1312.0229,0.101084
1313.8866,0.090299
1315.7503,0.086590
1317.6139,0.086788
1319.4776,0.088482
1321.3413,0.090447
1323.2049,0.092408
1325.0686,0.094403
1326.9323,0.096393
1328.7959,0.098310
1330.6596,0.100022
1332.5233,0.101332
1334.3869,0.102105
1336.2506,0.102547
1338.1143,0.103492
1339.9780,0.105055
1341.8416,0.105666
1343.7053,0.105600
1345.5690,0.106048
1347.4326,0.106787
1349.2963,0.107738
1351.1600,0.108868
1353.0236,0.110232
1354.8873,0.111983
1356.7510,0.113669
1358.6146,0.115005
1360.4783,0.116997
1362.3420,0.120588
1364.2056,0.123918
1366.0693,0.125718
1367.9330,0.128329
1369.7967,0.131369
1371.6603,0.133713
1373.5240,0.137038
1375.3877,0.141185
1377.2513,0.144029
1379.1150,0.147478
1380.9787,0.151937
1382.8423,0.156477
1384.7060,0.161184
1386.5697,0.167257
1388.4333,0.174163
1390.2970,0.177681
1392.1607,0.178275
1394.0244,0.176476
1395.8880,0.170640
1397.7517,0.162408
1399.6154,0.152789
1401.4790,0.143946
1403.3427,0.135697
1405.2064,0.123516
1407.0700,0.108640
1408.9337,0.094490
1410.7974,0.081414
1412.6610,0.072350
1414.5247,0.068285
1416.3884,0.067908
1418.2520,0.071144
1420.1157,0.077385
1421.9794,0.080550
1423.8431,0.078690
1425.7067,0.071690
1427.5704,0.064473
1429.4341,0.060104
1431.2977,0.058721
1433.1614,0.059197
1435.0251,0.060781
1436.8887,0.064326
1438.7524,0.067250
1440.6161,0.068921
1442.4797,0.071450
1444.3434,0.073939
1446.2071,0.075943
1448.0707,0.076983
1449.9344,0.075643
1451.7981,0.072488
1453.6618,0.068755
1455.5254,0.066126
1457.3891,0.066037
1459.2528,0.066200
1461.1164,0.065335
1462.9801,0.064936
1464.8438,0.064926
1466.7074,0.064003
1468.5711,0.062404
1470.4348,0.061535
1472.2984,0.061873
1474.1621,0.062447
1476.0258,0.062173
1477.8895,0.061984
1479.7531,0.061790
1481.6168,0.062007
1483.4805,0.061956
1485.3441,0.061768
1487.2078,0.062211
1489.0715,0.063744
1490.9351,0.065079
1492.7988,0.064740
1494.6625,0.064588
1496.5261,0.066237
1498.3898,0.068056
1500.2535,0.068501
1502.1171,0.068035
1503.9808,0.067585
1505.8445,0.069162
1507.7082,0.074696
1509.5718,0.074955
1511.4355,0.074744
1513.2992,0.075312
1515.1628,0.076099
1517.0265,0.077632
1518.8902,0.078677
1520.7538,0.080037
1522.6175,0.082846
1524.4812,0.083071
1526.3448,0.084146
1528.2085,0.085390
1530.0722,0.085819
1531.9359,0.086883
1533.7995,0.089464
1535.6632,0.090022
1537.5269,0.089604
1539.3905,0.092316
1541.2542,0.098304
1543.1179,0.099834
1544.9815,0.101445
1546.8452,0.102742
1548.7089,0.104054
1550.5725,0.106443
1552.4362,0.108420
1554.2999,0.109870
1556.1635,0.111566
1558.0272,0.115279
1559.8909,0.126022
1561.7546,0.125379
1563.6182,0.124754
1565.4819,0.126730
1567.3456,0.129321
1569.2092,0.133175
1571.0729,0.137568
1572.9366,0.138804
1574.8002,0.141575
1576.6639,0.147864
1578.5276,0.152010
1580.3912,0.153431
1582.2549,0.156192
1584.1186,0.158773
1585.9822,0.160870
1587.8459,0.162345
1589.7096,0.163660
1591.5733,0.164136
1593.4369,0.164151
1595.3006,0.163802
1597.1643,0.163136
1599.0279,0.161949
1600.8916,0.160845
1602.7553,0.159456
1604.6189,0.158206
1606.4826,0.157198
1608.3463,0.156142
1610.2099,0.154420
1612.0736,0.151645
1613.9373,0.147680
1615.8010,0.142874
1617.6646,0.135799
1619.5283,0.129969
1621.3920,0.124930
1623.2556,0.117804
1625.1193,0.110041
1626.9830,0.103317
1628.8466,0.095223
1630.7103,0.087740
1632.5740,0.081490
1634.4376,0.074622
1636.3013,0.066534
1638.1650,0.063114
1640.0286,0.062964
1641.8923,0.062513
1643.7560,0.062861
1645.6197,0.064157
1647.4833,0.066219
1649.3470,0.067459
1651.2107,0.068835
1653.0743,0.071876
1654.9380,0.075303
1656.8017,0.075448
1658.6653,0.075855
1660.5290,0.075729
1662.3927,0.075094
1664.2563,0.073744
1666.1200,0.072455
1667.9837,0.071036
1669.8474,0.069247
1671.7110,0.068280
1673.5747,0.068754
1675.4384,0.070283
1677.3020,0.072428
1679.1657,0.074218
1681.0294,0.076553
1682.8930,0.078847
1684.7567,0.082122
1686.6204,0.083445
1688.4840,0.083144
1690.3477,0.082238
1692.2114,0.080609
1694.0750,0.078133
1695.9387,0.074532
1697.8024,0.070410
1699.6661,0.067237
1701.5297,0.060198
1703.3934,0.055364
1705.2571,0.049201
1707.1207,0.041471
1708.9844,0.036516
1710.8481,0.032927
1712.7117,0.030036
1714.5754,0.028040
1716.4391,0.025974
1718.3027,0.024899
1720.1664,0.024173
1722.0301,0.023824
1723.8937,0.022664
1725.7574,0.021272
1727.6211,0.020006
1729.4848,0.018852
1731.3484,0.017516
1733.2121,0.016898
1735.0758,0.015694
1736.9394,0.014936
1738.8031,0.014668
1740.6668,0.014403
1742.5304,0.014019
1744.3941,0.013755
1746.2578,0.013227
1748.1214,0.012839
1749.9851,0.012360
1751.8488,0.012184
1753.7125,0.011975
1755.5761,0.011985
1757.4398,0.011805
1759.3035,0.011785
1761.1671,0.011733
1763.0308,0.011682
1764.8945,0.011627
1766.7581,0.011716
1768.6218,0.011516
1770.4855,0.011379
1772.3491,0.011243
1774.2128,0.011162
1776.0765,0.011117
1777.9401,0.011423
1779.8038,0.011470
1781.6675,0.011414
1783.5312,0.011512
1785.3948,0.011841
1787.2585,0.011806
1789.1222,0.011773
1790.9858,0.011770
1792.8495,0.011970
1794.7132,0.011757
1796.5768,0.011882
1798.4405,0.012093
1800.3042,0.012221
1802.1678,0.012207
1804.0315,0.012371
1805.8952,0.012457
1807.7589,0.012634
1809.6225,0.012715
1811.4862,0.012828
1813.3499,0.012836
1815.2135,0.012881
1817.0772,0.012905
1818.9409,0.013203
1820.8045,0.013174
1822.6682,0.013224
1824.5319,0.013305
1826.3955,0.013404
1828.2592,0.013268
1830.1229,0.013376
1831.9865,0.013196
1833.8502,0.013285
1835.7139,0.013389
1837.5776,0.013352
1839.4412,0.013148
1841.3049,0.013219
1843.1686,0.013368
1845.0322,0.013499
1846.8959,0.013263
1848.7596,0.013373
1850.6232,0.013288
1852.4869,0.013291
1854.3506,0.013215
1856.2142,0.013243
1858.0779,0.013293
1859.9416,0.013365
1861.8052,0.013192
1863.6689,0.013244
1865.5326,0.013073
1867.3963,0.013237
1869.2599,0.013201
1871.1236,0.013419
1872.9873,0.013847
1874.8509,0.013979
1876.7146,0.013953
1878.5783,0.014185
1880.4419,0.014380
1882.3056,0.014875
1884.1693,0.014956
1886.0329,0.015268
1887.8966,0.015673
1889.7603,0.015630
1891.6240,0.015277
1893.4876,0.015513
1895.3513,0.015760
1897.2150,0.016287
1899.0786,0.016706
1900.9423,0.017158
1902.8060,0.017168
1904.6696,0.017409
1906.5333,0.017330
1908.3970,0.017657
1910.2606,0.017860
1912.1243,0.017790
1913.9880,0.017487
1915.8516,0.017202
1917.7153,0.016637
1919.5790,0.016477
1921.4427,0.016216
1923.3063,0.016380
1925.1700,0.016259
1927.0337,0.015910
1928.8973,0.015442
1930.7610,0.015116
1932.6247,0.014747
1934.4883,0.014605
1936.3520,0.014103
1938.2157,0.013902
1940.0793,0.013438
1941.9430,0.013131
1943.8067,0.012481
1945.6704,0.011621
1947.5340,0.011044
1949.3977,0.011270
1951.2614,0.010854
1953.1250,0.010295
1954.9887,0.010411
1956.8524,0.010135
1958.7160,0.007902
1960.5797,0.007445
1962.4434,0.008157
1964.3070,0.007465
1966.1707,0.006194
1968.0344,0.006252
1969.8980,0.005550
1971.7617,0.005182
1973.6254,0.004913
1975.4891,0.004486
1977.3527,0.004962
1979.2164,0.006946
1981.0801,0.007079
1982.9437,0.007066
1984.8074,0.007545
1986.6711,0.008589
1988.5347,0.008752
1990.3984,0.009468
1992.2621,0.008949
1994.1257,0.008387
1995.9894,0.007741
1997.8531,0.008955
1999.7167,0.009271
2001.5804,0.008976
2003.4441,0.008441
2005.3078,0.007580
2007.1714,0.007272
2009.0351,0.006956
2010.8988,0.005502
2012.7624,0.007018
2014.6261,0.008552
2016.4898,0.007042
2018.3534,0.005349
2020.2171,0.005337
2022.0808,0.005204
2023.9444,0.006727
2025.8081,0.007368
2027.6718,0.007523
2029.5355,0.006039
2031.3991,0.006472
2033.2628,0.007793
2035.1265,0.008240
2036.9901,0.008143
2038.8538,0.008790
2040.7175,0.008818
2042.5811,0.008608
2044.4448,0.007965
2046.3085,0.008743
2048.1721,0.010290
2050.0358,0.011712
2051.8995,0.011372
2053.7631,0.011479
2055.6268,0.011612
2057.4905,0.012327
2059.3542,0.012734
2061.2178,0.012428
2063.0815,0.012342
2064.9452,0.012447
2066.8088,0.012236
2068.6725,0.012436
2070.5362,0.012439
2072.3998,0.013022
2074.2635,0.013114
2076.1272,0.013189
2077.9908,0.013664
2079.8545,0.013672
2081.7182,0.013444
2083.5819,0.014353
2085.4455,0.014424
2087.3092,0.014013
2089.1729,0.013917
2091.0365,0.013962
2092.9002,0.013340
2094.7639,0.013287
2096.6275,0.013421
2098.4912,0.013535
2100.3549,0.013361
2102.2185,0.013639
2104.0822,0.013863
2105.9459,0.013631
2107.8095,0.013569
2109.6732,0.014045
2111.5369,0.013800
2113.4006,0.013854
2115.2642,0.014468
2117.1279,0.014183
2118.9916,0.013148
2120.8552,0.012950
2122.7189,0.013621
2124.5826,0.013933
2126.4462,0.013047
2128.3099,0.012933
2130.1736,0.012829
2132.0372,0.012291
2133.9009,0.011175
2135.7646,0.011817
2137.6282,0.011630
2139.4919,0.010148
2141.3556,0.009743
2143.2193,0.010463
2145.0829,0.010030
2146.9466,0.010285
2148.8103,0.010806
2150.6739,0.010275
2152.5376,0.007888
2154.4013,0.006371
2156.2649,0.005439
2158.1286,0.004947
2159.9923,0.005434
2161.8559,0.006185
2163.7196,0.005652
2165.5833,0.007019
2167.4470,0.007810
2169.3106,0.007849
2171.1743,0.007459
2173.0380,0.008573
2174.9016,0.009486
2176.7653,0.009913
2178.6290,0.010516
2180.4926,0.010502
2182.3563,0.009321
2184.2200,0.009485
2186.0836,0.009607
2187.9473,0.010375
2189.8110,0.011134
2191.6746,0.011804
2193.5383,0.011785
2195.4020,0.011239
2197.2657,0.010920
2199.1293,0.012300
2200.9930,0.012601
2202.8567,0.012146
2204.7203,0.012991
2206.5840,0.013497
2208.4477,0.012793
2210.3113,0.012604
2212.1750,0.012452
2214.0387,0.013030
2215.9023,0.013554
2217.7660,0.014542
2219.6297,0.014906
2221.4934,0.014795
2223.3570,0.014220
2225.2207,0.014580
2227.0844,0.015116
2228.9480,0.015687
2230.8117,0.015688
2232.6754,0.015508
2234.5390,0.015841
2236.4027,0.016279
2238.2664,0.016862
2240.1300,0.017145
2241.9937,0.016750
2243.8574,0.017014
2245.7210,0.017361
2247.5847,0.017592
2249.4484,0.017185
2251.3121,0.017213
2253.1757,0.017901
2255.0394,0.018345
2256.9031,0.018989
2258.7667,0.019431
2260.6304,0.018732
2262.4941,0.018702
2264.3577,0.018999
2266.2214,0.019461
2268.0851,0.019548
2269.9487,0.019598
2271.8124,0.019512
2273.6761,0.019688
2275.5397,0.020537
2277.4034,0.021002
2279.2671,0.021298
2281.1308,0.021802
2282.9944,0.022035
2284.8581,0.022267
2286.7218,0.022064
2288.5854,0.021859
2290.4491,0.022140
2292.3128,0.022223
2294.1764,0.022136
2296.0401,0.022270
2297.9038,0.022541
2299.7674,0.022317
2301.6311,0.022103
2303.4948,0.022316
2305.3585,0.022698
2307.2221,0.022956
2309.0858,0.022815
2310.9495,0.022935
2312.8131,0.023012
2314.6768,0.022911
2316.5405,0.023053
2318.4041,0.023200
2320.2678,0.023303
2322.1315,0.023536
2323.9951,0.023425
2325.8588,0.023284
2327.7225,0.022959
2329.5861,0.022653
2331.4498,0.022351
2333.3135,0.022131
2335.1772,0.022209
2337.0408,0.022169
2338.9045,0.022391
2340.7682,0.022920
2342.6318,0.023014
2344.4955,0.022787
2346.3592,0.022875
2348.2228,0.023045
2350.0865,0.022706
2351.9502,0.022566
2353.8138,0.022446
2355.6775,0.022273
2357.5412,0.022238
2359.4049,0.022264
2361.2685,0.022431
2363.1322,0.022776
2364.9959,0.022336
2366.8595,0.022110
2368.7232,0.022280
2370.5869,0.022704
2372.4505,0.023212
2374.3142,0.023603
2376.1779,0.023840
2378.0415,0.024106
2379.9052,0.023982
2381.7689,0.023992
2383.6325,0.024206
2385.4962,0.024036
2387.3599,0.024064
2389.2236,0.024167
2391.0872,0.023938
2392.9509,0.024092
2394.8146,0.024443
2396.6782,0.024403
2398.5419,0.024696
2400.4056,0.024920
2402.2692,0.024788
2404.1329,0.024743
2405.9966,0.024592
2407.8602,0.024703
2409.7239,0.024780
2411.5876,0.024779
2413.4512,0.025090
2415.3149,0.025107
2417.1786,0.025147
2419.0423,0.025429
2420.9059,0.025422
2422.7696,0.025385
2424.6333,0.025556
2426.4969,0.025781
2428.3606,0.025764
2430.2243,0.025756
2432.0879,0.025910
2433.9516,0.026046
2435.8153,0.025649
2437.6789,0.025621
2439.5426,0.025978
2441.4063,0.026054
2443.2700,0.025577
2445.1336,0.025395
2446.9973,0.025742
2448.8610,0.025778
2450.7246,0.025815
2452.5883,0.025843
2454.4520,0.025762
2456.3156,0.025722
2458.1793,0.025504
2460.0430,0.025287
2461.9066,0.025258
2463.7703,0.025227
2465.6340,0.025325
2467.4976,0.025382
2469.3613,0.025174
2471.2250,0.025045
2473.0887,0.025294
2474.9523,0.025214
2476.8160,0.025062
2478.6797,0.025098
2480.5433,0.025053
2482.4070,0.025357
2484.2707,0.025756
2486.1343,0.025810
2487.9980,0.025720
2489.8617,0.025718
2491.7253,0.025828
2493.5890,0.025917
2495.4527,0.026242
2497.3164,0.026678
2499.1800,0.026755
2501.0437,0.026781
2502.9074,0.026586
2504.7710,0.026335
2506.6347,0.026119
2508.4984,0.025847
2510.3620,0.025642
2512.2257,0.025850
2514.0894,0.026091
2515.9530,0.026266
2517.8167,0.025873
2519.6804,0.025852
2521.5440,0.026423
2523.4077,0.026721
2525.2714,0.026588
2527.1351,0.026424
