Wavenumber,Intensity
650.4205,0.208015
652.2841,0.205966
654.1478,0.203541
656.0115,0.203947
657.8751,0.207807
659.7388,0.206304
661.6025,0.206101
663.4661,0.206781
665.3298,0.209552
667.1935,0.211628
669.0571,0.211697
670.9208,0.207651
672.7845,0.201446
674.6481,0.195011
676.5118,0.193391
678.3755,0.190908
680.2392,0.188264
682.1028,0.186054
683.9665,0.183562
685.8302,0.180347
687.6938,0.177267
689.5575,0.176019
691.4212,0.175902
693.2848,0.173383
695.1485,0.172717
697.0122,0.172918
698.8758,0.172778
700.7395,0.173613
702.6032,0.173620
704.4669,0.169394
706.3305,0.164161
708.1942,0.159290
710.0579,0.152946
711.9215,0.146548
713.7852,0.142369
715.6489,0.137244
717.5125,0.132479
719.3762,0.127927
721.2399,0.123197
723.1035,0.119285
724.9672,0.116293
726.8309,0.112831
728.6945,0.109281
730.5582,0.106001
732.4219,0.103880
734.2856,0.101118
736.1492,0.098491
738.0129,0.097375
739.8766,0.098070
741.7402,0.099737
743.6039,0.100865
745.4676,0.100895
747.3312,0.101105
749.1949,0.100507
751.0586,0.099054
752.9222,0.097696
754.7859,0.097258
756.6496,0.096966
758.5132,0.096235
760.3769,0.094878
762.2406,0.093987
764.1043,0.093769
765.9679,0.093782
767.8316,0.093668
769.6953,0.094188
771.5589,0.094725
773.4226,0.095103
775.2863,0.095611
777.1499,0.096445
779.0136,0.097346
780.8773,0.097615
782.7409,0.097987
784.6046,0.099059
786.4683,0.100276
788.3320,0.101531
790.1956,0.102829
792.0593,0.104145
793.9230,0.105439
795.7866,0.106712
797.6503,0.107560
799.5140,0.108431
801.3776,0.108956
803.2413,0.108956
805.1050,0.108626
806.9686,0.107961
808.8323,0.106685
810.6960,0.104907
812.5596,0.101826
814.4233,0.098789
816.2870,0.096504
818.1507,0.094193
820.0143,0.092168
821.8780,0.090767
823.7417,0.090054
825.6053,0.090226
827.4690,0.091259
829.3327,0.091975
831.1963,0.088382
833.0600,0.080396
834.9237,0.073319
836.7873,0.069882
838.6510,0.068626
840.5147,0.068194
842.3784,0.068141
844.2420,0.068144
846.1057,0.068374
847.9694,0.068547
849.8330,0.068230
851.6967,0.067630
853.5604,0.067355
855.4240,0.067337
857.2877,0.067181
859.1514,0.066855
861.0150,0.066709
862.8787,0.066904
864.7424,0.067292
866.6060,0.067547
868.4697,0.067723
870.3334,0.067873
872.1971,0.067901
874.0607,0.068046
875.9244,0.068565
877.7881,0.069159
879.6517,0.069400
881.5154,0.069525
883.3791,0.069733
885.2427,0.070164
887.1064,0.070542
888.9701,0.070991
890.8337,0.071797
892.6974,0.072643
894.5611,0.073592
896.4247,0.074953
898.2884,0.076184
900.1521,0.077690
902.0158,0.079772
903.8794,0.082295
905.7431,0.085317
907.6068,0.088973
909.4704,0.093402
911.3341,0.098664
913.1978,0.104247
915.0614,0.107169
916.9251,0.102434
918.7888,0.091923
920.6524,0.083538
922.5161,0.080027
924.3798,0.079259
926.2435,0.079410
928.1071,0.079882
929.9708,0.080359
931.8345,0.080956
933.6981,0.081741
935.5618,0.082741
937.4255,0.083876
939.2891,0.084973
941.1528,0.086199
943.0165,0.087179
944.8801,0.088072
946.7438,0.089192
948.6075,0.090409
950.4711,0.091629
952.3348,0.092922
954.1985,0.094273
956.0622,0.095831
957.9258,0.097417
959.7895,0.098974
961.6532,0.100794
963.5168,0.102743
965.3805,0.104833
967.2442,0.107357
969.1078,0.110239
970.9715,0.113236
972.8352,0.116681
974.6988,0.121597
976.5625,0.129338
978.4262,0.141958
980.2899,0.159213
982.1535,0.166301
984.0172,0.147292
985.8809,0.122657
987.7445,0.112279
989.6082,0.111821
991.4719,0.113647
993.3355,0.115870
995.1992,0.118456
997.0629,0.121158
998.9265,0.123979
1000.7902,0.126706
1002.6539,0.129304
1004.5175,0.132080
1006.3812,0.135110
1008.2449,0.138059
1010.1086,0.140694
1011.9722,0.142772
1013.8359,0.144045
1015.6996,0.144818
1017.5632,0.144971
1019.4269,0.144460
1021.2906,0.143436
1023.1542,0.142292
1025.0179,0.141226
1026.8816,0.140276
1028.7452,0.139629
1030.6089,0.139242
1032.4726,0.139170
1034.3362,0.139545
1036.1999,0.140110
1038.0636,0.140945
1039.9273,0.142276
1041.7909,0.144116
1043.6546,0.146019
1045.5183,0.147471
1047.3819,0.148143
1049.2456,0.146884
1051.1093,0.142036
1052.9729,0.134500
1054.8366,0.127360
1056.7003,0.122636
1058.5639,0.120348
1060.4276,0.119829
1062.2913,0.120077
1064.1550,0.120566
1066.0186,0.121335
1067.8823,0.122379
1069.7460,0.123666
1071.6096,0.125277
1073.4733,0.126997
1075.3370,0.128753
1077.2006,0.130619
1079.0643,0.132589
1080.9280,0.134392
1082.7916,0.135978
1084.6553,0.137599
1086.5190,0.139262
1088.3826,0.140816
1090.2463,0.142651
1092.1100,0.145127
1093.9737,0.148282
1095.8373,0.151877
1097.7010,0.155808
1099.5647,0.159831
1101.4283,0.163683
1103.2920,0.166788
1105.1557,0.168040
1107.0193,0.166515
1108.8830,0.161432
1110.7467,0.153020
1112.6103,0.142831
1114.4740,0.132639
1116.3377,0.123576
1118.2014,0.115946
1120.0650,0.110139
1121.9287,0.106124
1123.7924,0.103317
1125.6560,0.101242
1127.5197,0.099356
1129.3834,0.097285
1131.2470,0.095156
1133.1107,0.093143
1134.9744,0.091416
1136.8380,0.090061
1138.7017,0.089081
1140.5654,0.088479
1142.4290,0.088210
1144.2927,0.088171
1146.1564,0.088083
1148.0201,0.088000
1149.8837,0.088188
1151.7474,0.088644
1153.6111,0.089209
1155.4747,0.089828
1157.3384,0.090606
1159.2021,0.091619
1161.0657,0.092618
1162.9294,0.093680
1164.7931,0.094984
1166.6567,0.096537
1168.5204,0.098307
1170.3841,0.100009
1172.2477,0.100969
1174.1114,0.100052
1175.9751,0.096986
1177.8388,0.093097
1179.7024,0.089929
1181.5661,0.088091
1183.4298,0.087299
1185.2934,0.087136
1187.1571,0.087322
1189.0208,0.087630
1190.8844,0.087923
1192.7481,0.088135
1194.6118,0.088283
1196.4754,0.088547
1198.3391,0.088960
1200.2028,0.089328
1202.0665,0.089497
1203.9301,0.089294
1205.7938,0.088839
1207.6575,0.088356
1209.5211,0.088042
1211.3848,0.088138
1213.2485,0.088689
1215.1121,0.089393
1216.9758,0.090121
1218.8395,0.090768
1220.7031,0.091363
1222.5668,0.091971
1224.4305,0.092625
1226.2941,0.093295
1228.1578,0.093896
1230.0215,0.094383
1231.8852,0.094687
1233.7488,0.094790
1235.6125,0.094812
1237.4762,0.094825
1239.3398,0.094916
1241.2035,0.094920
1243.0672,0.094878
1244.9308,0.094900
1246.7945,0.094816
1248.6582,0.094632
1250.5218,0.094532
1252.3855,0.094541
1254.2492,0.094563
1256.1129,0.094456
1257.9765,0.094414
1259.8402,0.094568
1261.7039,0.094778
1263.5675,0.095034
1265.4312,0.095371
1267.2949,0.095414
1269.1585,0.095119
1271.0222,0.094954
1272.8859,0.095000
1274.7495,0.095221
1276.6132,0.095779
1278.4769,0.096554
1280.3405,0.097526
1282.2042,0.098541
1284.0679,0.099451
1285.9316,0.100405
1287.7952,0.101814
1289.6589,0.103621
1291.5226,0.105946
1293.3862,0.108917
1295.2499,0.112517
1297.1136,0.116843
1298.9772,0.121916
1300.8409,0.127884
1302.7046,0.134168
1304.5682,0.138560
1306.4319,0.137608
1308.2956,0.128594
1310.1592,0.113346
1312.0229,0.098579
1313.8866,0.089211
1315.7503,0.085810
1317.6139,0.086179
1319.4776,0.088038
1321.3413,0.089794
1323.2049,0.091503
1325.0686,0.093705
1326.9323,0.096087
1328.7959,0.098320
1330.6596,0.100198
1332.5233,0.101364
1334.3869,0.101547
1336.2506,0.101469
1338.1143,0.102263
1339.9780,0.103760
1341.8416,0.103216
1343.7053,0.101987
1345.5690,0.101920
1347.4326,0.102572
1349.2963,0.103543
1351.1600,0.104753
1353.0236,0.106293
1354.8873,0.108656
1356.7510,0.110857
1358.6146,0.112151
1360.4783,0.113969
1362.3420,0.118433
1364.2056,0.122357
1366.0693,0.123585
1367.9330,0.126389
1369.7967,0.130221
1371.6603,0.132923
1373.5240,0.138099
1375.3877,0.144539
1377.2513,0.147860
1379.1150,0.151952
1380.9787,0.157270
1382.8423,0.162215
1384.7060,0.167417
1386.5697,0.175086
1388.4333,0.183767
1390.2970,0.186471
1392.1607,0.186629
1394.0244,0.186853
1395.8880,0.183437
1397.7517,0.176083
1399.6154,0.168070
1401.4790,0.159692
1403.3427,0.152414
1405.2064,0.142597
1407.0700,0.128681
1408.9337,0.114788
1410.7974,0.102507
1412.6610,0.093660
1414.5247,0.088934
1416.3884,0.088160
1418.2520,0.092478
1420.1157,0.100035
1421.9794,0.101741
1423.8431,0.100260
1425.7067,0.094505
1427.5704,0.087729
1429.4341,0.084152
1431.2977,0.083365
1433.1614,0.083193
1435.0251,0.084706
1436.8887,0.090185
1438.7524,0.092511
1440.6161,0.091995
1442.4797,0.093040
1444.3434,0.094015
1446.2071,0.094861
1448.0707,0.096078
1449.9344,0.094897
1451.7981,0.091464
1453.6618,0.087502
1455.5254,0.086227
1457.3891,0.092053
1459.2528,0.093015
1461.1164,0.089154
1462.9801,0.087735
1464.8438,0.088839
1466.7074,0.087991
1468.5711,0.084787
1470.4348,0.082810
1472.2984,0.084689
1474.1621,0.086891
1476.0258,0.086447
1477.8895,0.085602
1479.7531,0.085073
1481.6168,0.085958
1483.4805,0.086431
1485.3441,0.086437
1487.2078,0.088218
1489.0715,0.092785
1490.9351,0.097173
1492.7988,0.095770
1494.6625,0.094907
1496.5261,0.098993
1498.3898,0.103966
1500.2535,0.104571
1502.1171,0.103263
1503.9808,0.101846
1505.8445,0.105556
1507.7082,0.120506
1509.5718,0.119556
1511.4355,0.116628
1513.2992,0.116043
1515.1628,0.116387
1517.0265,0.118977
1518.8902,0.119846
1520.7538,0.121955
1522.6175,0.126182
1524.4812,0.125364
1526.3448,0.126146
1528.2085,0.127108
1530.0722,0.125645
1531.9359,0.125964
1533.7995,0.129700
1535.6632,0.128649
1537.5269,0.126000
1539.3905,0.130183
1541.2542,0.140608
1543.1179,0.140181
1544.9815,0.139922
1546.8452,0.138838
1548.7089,0.138674
1550.5725,0.140789
1552.4362,0.141231
1554.2999,0.141394
1556.1635,0.142040
1558.0272,0.147801
1559.8909,0.163559
1561.7546,0.155916
1563.6182,0.151984
1565.4819,0.152774
1567.3456,0.153896
1569.2092,0.157620
1571.0729,0.161086
1572.9366,0.159505
1574.8002,0.161043
1576.6639,0.168342
1578.5276,0.170115
1580.3912,0.168947
1582.2549,0.169956
1584.1186,0.171217
1585.9822,0.171892
1587.8459,0.172121
1589.7096,0.172066
1591.5733,0.171596
1593.4369,0.170927
1595.3006,0.169939
1597.1643,0.168395
1599.0279,0.166612
1600.8916,0.165302
1602.7553,0.164071
1604.6189,0.162728
1606.4826,0.161666
1608.3463,0.161339
1610.2099,0.160483
1612.0736,0.158313
1613.9373,0.155382
1615.8010,0.153448
1617.6646,0.150285
1619.5283,0.145104
1621.3920,0.140967
1623.2556,0.136911
1625.1193,0.131109
1626.9830,0.125604
1628.8466,0.119032
1630.7103,0.111966
1632.5740,0.105719
1634.4376,0.100746
1636.3013,0.096158
1638.1650,0.092067
1640.0286,0.089495
1641.8923,0.087589
1643.7560,0.086455
1645.6197,0.087408
1647.4833,0.090081
1649.3470,0.089481
1651.2107,0.089028
1653.0743,0.093868
1654.9380,0.096789
1656.8017,0.093362
1658.6653,0.091572
1660.5290,0.090374
1662.3927,0.089508
1664.2563,0.087542
1666.1200,0.084535
1667.9837,0.082483
1669.8474,0.081151
1671.7110,0.079397
1673.5747,0.078589
1675.4384,0.079583
1677.3020,0.079843
1679.1657,0.079431
1681.0294,0.080221
1682.8930,0.081903
1684.7567,0.084742
1686.6204,0.083544
1688.4840,0.080743
1690.3477,0.077646
1692.2114,0.073597
1694.0750,0.069862
1695.9387,0.065910
1697.8024,0.061367
1699.6661,0.058285
1701.5297,0.052687
1703.3934,0.047773
1705.2571,0.042898
1707.1207,0.036362
1708.9844,0.031842
1710.8481,0.028531
1712.7117,0.025840
1714.5754,0.023905
1716.4391,0.022535
1718.3027,0.021966
1720.1664,0.021002
1722.0301,0.019890
1723.8937,0.018864
1725.7574,0.017558
1727.6211,0.016202
1729.4848,0.014951
1731.3484,0.013867
1733.2121,0.013263
1735.0758,0.013085
1736.9394,0.012557
1738.8031,0.012077
1740.6668,0.011818
1742.5304,0.011638
1744.3941,0.011432
1746.2578,0.011063
1748.1214,0.010722
1749.9851,0.010690
1751.8488,0.010752
1753.7125,0.010556
1755.5761,0.010213
1757.4398,0.010148
1759.3035,0.010095
1761.1671,0.010017
1763.0308,0.010108
1764.8945,0.009845
1766.7581,0.009492
1768.6218,0.009559
1770.4855,0.009680
1772.3491,0.009798
1774.2128,0.009842
1776.0765,0.009648
1777.9401,0.009638
1779.8038,0.009709
1781.6675,0.009583
1783.5312,0.009489
1785.3948,0.009733
1787.2585,0.009835
1789.1222,0.009559
1790.9858,0.009566
1792.8495,0.009961
1794.7132,0.010083
1796.5768,0.009871
1798.4405,0.009541
1800.3042,0.009543
1802.1678,0.009905
1804.0315,0.009930
1805.8952,0.009711
1807.7589,0.009739
1809.6225,0.009829
1811.4862,0.009756
1813.3499,0.009755
1815.2135,0.009726
1817.0772,0.009767
1818.9409,0.010064
1820.8045,0.010185
1822.6682,0.010048
1824.5319,0.009997
1826.3955,0.009850
1828.2592,0.009569
1830.1229,0.009588
1831.9865,0.009700
1833.8502,0.009605
1835.7139,0.009606
1837.5776,0.009669
1839.4412,0.009622
1841.3049,0.009504
1843.1686,0.009472
1845.0322,0.009529
1846.8959,0.009528
1848.7596,0.009607
1850.6232,0.009723
1852.4869,0.009802
1854.3506,0.009884
1856.2142,0.009778
1858.0779,0.009642
1859.9416,0.009682
1861.8052,0.009855
1863.6689,0.009959
1865.5326,0.009748
1867.3963,0.009613
1869.2599,0.009738
1871.1236,0.009933
1872.9873,0.010086
1874.8509,0.010142
1876.7146,0.010060
1878.5783,0.010086
1880.4419,0.010327
1882.3056,0.010134
1884.1693,0.009660
1886.0329,0.009571
1887.8966,0.009757
1889.7603,0.009682
1891.6240,0.009534
1893.4876,0.009709
1895.3513,0.009747
1897.2150,0.009648
1899.0786,0.009754
1900.9423,0.009947
1902.8060,0.009916
1904.6696,0.009853
1906.5333,0.010021
1908.3970,0.010079
1910.2606,0.009989
1912.1243,0.009921
1913.9880,0.009931
1915.8516,0.009913
1917.7153,0.009809
1919.5790,0.009562
1921.4427,0.009545
1923.3063,0.009577
1925.1700,0.009058
1927.0337,0.008875
1928.8973,0.009120
1930.7610,0.008920
1932.6247,0.008910
1934.4883,0.009268
1936.3520,0.009184
1938.2157,0.008751
1940.0793,0.008541
1941.9430,0.008949
1943.8067,0.008606
1945.6704,0.007386
1947.5340,0.007158
1949.3977,0.007646
1951.2614,0.007818
1953.1250,0.008065
1954.9887,0.008109
1956.8524,0.007793
1958.7160,0.007296
1960.5797,0.006529
1962.4434,0.006267
1964.3070,0.005933
1966.1707,0.005089
1968.0344,0.005009
1969.8980,0.004210
1971.7617,0.002992
1973.6254,0.003464
1975.4891,0.003826
1977.3527,0.004415
1979.2164,0.005511
1981.0801,0.005460
1982.9437,0.005177
1984.8074,0.006395
1986.6711,0.007989
1988.5347,0.007761
1990.3984,0.006523
1992.2621,0.006144
1994.1257,0.006776
1995.9894,0.007031
1997.8531,0.007059
1999.7167,0.007318
2001.5804,0.007580
2003.4441,0.007207
2005.3078,0.005875
2007.1714,0.005481
2009.0351,0.005767
2010.8988,0.005232
2012.7624,0.004980
2014.6261,0.005175
2016.4898,0.005154
2018.3534,0.004226
2020.2171,0.004342
2022.0808,0.004962
2023.9444,0.004598
2025.8081,0.004192
2027.6718,0.004828
2029.5355,0.005244
2031.3991,0.003682
2033.2628,0.003384
2035.1265,0.004930
2036.9901,0.005500
2038.8538,0.006057
2040.7175,0.006427
2042.5811,0.006632
2044.4448,0.007101
2046.3085,0.007643
2048.1721,0.008255
2050.0358,0.008704
2051.8995,0.008760
2053.7631,0.008805
2055.6268,0.009397
2057.4905,0.010176
2059.3542,0.010530
2061.2178,0.010558
2063.0815,0.010358
2064.9452,0.010440
2066.8088,0.010626
2068.6725,0.010737
2070.5362,0.011165
2072.3998,0.011174
2074.2635,0.010592
2076.1272,0.010847
2077.9908,0.011619
2079.8545,0.012110
2081.7182,0.012104
2083.5819,0.011999
2085.4455,0.011999
2087.3092,0.011997
2089.1729,0.012504
2091.0365,0.012691
2092.9002,0.012170
2094.7639,0.012056
2096.6275,0.012335
2098.4912,0.012646
2100.3549,0.012920
2102.2185,0.012894
2104.0822,0.012345
2105.9459,0.012088
2107.8095,0.012425
2109.6732,0.012869
2111.5369,0.013059
2113.4006,0.013141
2115.2642,0.013302
2117.1279,0.013131
2118.9916,0.012372
2120.8552,0.012026
2122.7189,0.011917
2124.5826,0.011375
2126.4462,0.011430
2128.3099,0.011902
2130.1736,0.011485
2132.0372,0.010841
2133.9009,0.010699
2135.7646,0.010925
2137.6282,0.011021
2139.4919,0.010335
2141.3556,0.010113
2143.2193,0.009934
2145.0829,0.008155
2146.9466,0.007155
2148.8103,0.007323
2150.6739,0.007059
2152.5376,0.006056
2154.4013,0.004369
2156.2649,0.003409
2158.1286,0.004054
2159.9923,0.004513
2161.8559,0.005398
2163.7196,0.007457
2165.5833,0.009465
2167.4470,0.009635
2169.3106,0.007568
2171.1743,0.006138
2173.0380,0.006635
2174.9016,0.006971
2176.7653,0.007126
2178.6290,0.007597
2180.4926,0.007854
2182.3563,0.007112
2184.2200,0.008078
2186.0836,0.010055
2187.9473,0.009811
2189.8110,0.008941
2191.6746,0.008546
2193.5383,0.008942
2195.4020,0.010205
2197.2657,0.011134
2199.1293,0.011282
2200.9930,0.011252
2202.8567,0.011972
2204.7203,0.011664
2206.5840,0.010848
2208.4477,0.011297
2210.3113,0.011619
2212.1750,0.011107
2214.0387,0.011002
2215.9023,0.011641
2217.7660,0.012264
2219.6297,0.012339
2221.4934,0.012498
2223.3570,0.013116
2225.2207,0.013292
2227.0844,0.013058
2228.9480,0.013376
2230.8117,0.014052
2232.6754,0.013562
2234.5390,0.012853
2236.4027,0.013370
2238.2664,0.013815
2240.1300,0.014089
2241.9937,0.014589
2243.8574,0.015009
2245.7210,0.014523
2247.5847,0.013833
2249.4484,0.013963
2251.3121,0.014711
2253.1757,0.015190
2255.0394,0.015490
2256.9031,0.015615
2258.7667,0.015662
2260.6304,0.015741
2262.4941,0.015327
2264.3577,0.015211
2266.2214,0.015923
2268.0851,0.016698
2269.9487,0.016937
2271.8124,0.016995
2273.6761,0.017555
2275.5397,0.017985
2277.4034,0.018028
2279.2671,0.017721
2281.1308,0.017672
2282.9944,0.018407
2284.8581,0.019198
2286.7218,0.019267
2288.5854,0.018875
2290.4491,0.018754
2292.3128,0.018742
2294.1764,0.018940
2296.0401,0.019321
2297.9038,0.019506
2299.7674,0.019379
2301.6311,0.019253
2303.4948,0.019267
2305.3585,0.019354
2307.2221,0.019187
2309.0858,0.019075
2310.9495,0.019438
2312.8131,0.019741
2314.6768,0.019784
2316.5405,0.019844
2318.4041,0.019774
2320.2678,0.019823
2322.1315,0.020094
2323.9951,0.020172
2325.8588,0.019887
2327.7225,0.019284
2329.5861,0.019133
2331.4498,0.019469
2333.3135,0.019366
2335.1772,0.019067
2337.0408,0.018900
2338.9045,0.018880
2340.7682,0.019172
2342.6318,0.019516
2344.4955,0.019722
2346.3592,0.019510
2348.2228,0.018924
2350.0865,0.018591
2351.9502,0.018602
2353.8138,0.018673
2355.6775,0.018653
2357.5412,0.018761
2359.4049,0.018765
2361.2685,0.018679
2363.1322,0.018641
2364.9959,0.018545
2366.8595,0.018409
2368.7232,0.018605
2370.5869,0.019047
2372.4505,0.019365
2374.3142,0.019660
2376.1779,0.019954
2378.0415,0.019974
2379.9052,0.019647
2381.7689,0.019328
2383.6325,0.019193
2385.4962,0.019284
2387.3599,0.019460
2389.2236,0.019439
2391.0872,0.019374
2392.9509,0.019509
2394.8146,0.019704
2396.6782,0.019538
2398.5419,0.019582
2400.4056,0.019848
2402.2692,0.019794
2404.1329,0.019650
2405.9966,0.019831
2407.8602,0.019997
2409.7239,0.020132
2411.5876,0.019971
2413.4512,0.019619
2415.3149,0.019970
2417.1786,0.020681
2419.0423,0.020877
2420.9059,0.020652
2422.7696,0.020322
2424.6333,0.020339
2426.4969,0.020560
2428.3606,0.020467
2430.2243,0.020509
2432.0879,0.020938
2433.9516,0.021080
2435.8153,0.021319
2437.6789,0.021679
2439.5426,0.021396
2441.4063,0.020740
2443.2700,0.020743
2445.1336,0.021195
2446.9973,0.021041
2448.8610,0.020846
2450.7246,0.020971
2452.5883,0.021199
2454.4520,0.021418
2456.3156,0.021357
2458.1793,0.021203
2460.0430,0.021073
2461.9066,0.021109
2463.7703,0.021051
2465.6340,0.020982
2467.4976,0.020849
2469.3613,0.021050
2471.2250,0.021521
2473.0887,0.021666
2474.9523,0.021365
2476.8160,0.021235
2478.6797,0.021284
2480.5433,0.021411
2482.4070,0.021783
2484.2707,0.021902
2486.1343,0.021611
2487.9980,0.021676
2489.8617,0.022042
2491.7253,0.022246
2493.5890,0.022372
2495.4527,0.022280
2497.3164,0.022374
2499.1800,0.022760
2501.0437,0.022785
2502.9074,0.022933
2504.7710,0.022909
2506.6347,0.023006
2508.4984,0.023006
2510.3620,0.022818
2512.2257,0.022591
2514.0894,0.022724
2515.9530,0.023118
2517.8167,0.023375
2519.6804,0.023355
2521.5440,0.023267
2523.4077,0.023659
2525.2714,0.024008
2527.1351,0.023669
