Wavenumber,Intensity
650.4205,0.182896
652.2841,0.181161
654.1478,0.177310
656.0115,0.171560
657.8751,0.167556
659.7388,0.164679
661.6025,0.165392
663.4661,0.165678
665.3298,0.167368
667.1935,0.170138
669.0571,0.171213
670.9208,0.168230
672.7845,0.167486
674.6481,0.165264
676.5118,0.162548
678.3755,0.157392
680.2392,0.151326
682.1028,0.147103
683.9665,0.143830
685.8302,0.140059
687.6938,0.134382
689.5575,0.127744
691.4212,0.123217
693.2848,0.120335
695.1485,0.118538
697.0122,0.116395
698.8758,0.115407
700.7395,0.114851
702.6032,0.114248
704.4669,0.113292
706.3305,0.111150
708.1942,0.107873
710.0579,0.105512
711.9215,0.102912
713.7852,0.099967
715.6489,0.098137
717.5125,0.096470
719.3762,0.094025
721.2399,0.091565
723.1035,0.089496
724.9672,0.087397
726.8309,0.085197
728.6945,0.083528
730.5582,0.081401
732.4219,0.078406
734.2856,0.075722
736.1492,0.073836
738.0129,0.073166
739.8766,0.073618
741.7402,0.073675
743.6039,0.075232
745.4676,0.077906
747.3312,0.078972
749.1949,0.078451
751.0586,0.078254
752.9222,0.078748
754.7859,0.078969
756.6496,0.078498
758.5132,0.078998
760.3769,0.079717
762.2406,0.080423
764.1043,0.082104
765.9679,0.084637
767.8316,0.088511
769.6953,0.094125
771.5589,0.101245
773.4226,0.110805
775.2863,0.118565
777.1499,0.116799
779.0136,0.104954
780.8773,0.091579
782.7409,0.082900
784.6046,0.078902
786.4683,0.077717
788.3320,0.078419
790.1956,0.079491
792.0593,0.081281
793.9230,0.084070
795.7866,0.087270
797.6503,0.090306
799.5140,0.093691
801.3776,0.098687
803.2413,0.105701
805.1050,0.115434
806.9686,0.128697
808.8323,0.137562
810.6960,0.126762
812.5596,0.100226
814.4233,0.078320
816.2870,0.067666
818.1507,0.063653
820.0143,0.062197
821.8780,0.062279
823.7417,0.063446
825.6053,0.064950
827.4690,0.067032
829.3327,0.069695
831.1963,0.069876
833.0600,0.067192
834.9237,0.065000
836.7873,0.065436
838.6510,0.068239
840.5147,0.072473
842.3784,0.077500
844.2420,0.082732
846.1057,0.086559
847.9694,0.086109
849.8330,0.080764
851.6967,0.073394
853.5604,0.065769
855.4240,0.058289
857.2877,0.052180
859.1514,0.048296
861.0150,0.046089
862.8787,0.045262
864.7424,0.045338
866.6060,0.045613
868.4697,0.045823
870.3334,0.046244
872.1971,0.046757
874.0607,0.047360
875.9244,0.048077
877.7881,0.048815
879.6517,0.049731
881.5154,0.050933
883.3791,0.052280
885.2427,0.053706
887.1064,0.055234
888.9701,0.057113
890.8337,0.059501
892.6974,0.062271
894.5611,0.064675
896.4247,0.065608
898.2884,0.063941
900.1521,0.060512
902.0158,0.057730
903.8794,0.056648
905.7431,0.057141
907.6068,0.058990
909.4704,0.061655
911.3341,0.064520
913.1978,0.067773
915.0614,0.070361
916.9251,0.069422
918.7888,0.065219
920.6524,0.062274
922.5161,0.063178
924.3798,0.065886
926.2435,0.065340
928.1071,0.059195
929.9708,0.051783
931.8345,0.047809
933.6981,0.047193
935.5618,0.047843
937.4255,0.048642
939.2891,0.049534
941.1528,0.050432
943.0165,0.051307
944.8801,0.052191
946.7438,0.053086
948.6075,0.053933
950.4711,0.054711
952.3348,0.055533
954.1985,0.056417
956.0622,0.057459
957.9258,0.058566
959.7895,0.059529
961.6532,0.060571
963.5168,0.061779
965.3805,0.063152
967.2442,0.064698
969.1078,0.066559
970.9715,0.068659
972.8352,0.070993
974.6988,0.074280
976.5625,0.079445
978.4262,0.087680
980.2899,0.098754
982.1535,0.104009
984.0172,0.093840
985.8809,0.079206
987.7445,0.072585
989.6082,0.072654
991.4719,0.075232
993.3355,0.078602
995.1992,0.082660
997.0629,0.086803
998.9265,0.087769
1000.7902,0.082825
1002.6539,0.074899
1004.5175,0.069347
1006.3812,0.067548
1008.2449,0.067798
1010.1086,0.068554
1011.9722,0.069316
1013.8359,0.070322
1015.6996,0.071844
1017.5632,0.073929
1019.4269,0.076257
1021.2906,0.078615
1023.1542,0.080977
1025.0179,0.083287
1026.8816,0.085518
1028.7452,0.087775
1030.6089,0.090326
1032.4726,0.093246
1034.3362,0.096385
1036.1999,0.099798
1038.0636,0.104037
1039.9273,0.109111
1041.7909,0.114833
1043.6546,0.121135
1045.5183,0.127998
1047.3819,0.135426
1049.2456,0.141436
1051.1093,0.140577
1052.9729,0.128327
1054.8366,0.108393
1056.7003,0.090913
1058.5639,0.081361
1060.4276,0.078075
1062.2913,0.077996
1064.1550,0.079116
1066.0186,0.080825
1067.8823,0.083209
1069.7460,0.086082
1071.6096,0.089319
1073.4733,0.092771
1075.3370,0.096834
1077.2006,0.101884
1079.0643,0.107813
1080.9280,0.114012
1082.7916,0.119279
1084.6553,0.121570
1086.5190,0.119108
1088.3826,0.112368
1090.2463,0.106137
1092.1100,0.104914
1093.9737,0.108687
1095.8373,0.115265
1097.7010,0.123121
1099.5647,0.131358
1101.4283,0.138877
1103.2920,0.142903
1105.1557,0.140488
1107.0193,0.132470
1108.8830,0.122980
1110.7467,0.114542
1112.6103,0.107625
1114.4740,0.102277
1116.3377,0.098475
1118.2014,0.096111
1120.0650,0.095199
1121.9287,0.095856
1123.7924,0.098004
1125.6560,0.100911
1127.5197,0.103405
1129.3834,0.103895
1131.2470,0.101110
1133.1107,0.095586
1134.9744,0.089701
1136.8380,0.085615
1138.7017,0.083907
1140.5654,0.084124
1142.4290,0.085557
1144.2927,0.087637
1146.1564,0.090258
1148.0201,0.093372
1149.8837,0.097061
1151.7474,0.101404
1153.6111,0.106479
1155.4747,0.112476
1157.3384,0.118985
1159.2021,0.124443
1161.0657,0.127005
1162.9294,0.125345
1164.7931,0.119708
1166.6567,0.111122
1168.5204,0.101046
1170.3841,0.091914
1172.2477,0.085714
1174.1114,0.082029
1175.9751,0.079564
1177.8388,0.077825
1179.7024,0.077028
1181.5661,0.077358
1183.4298,0.078573
1185.2934,0.080274
1187.1571,0.082247
1189.0208,0.084321
1190.8844,0.086651
1192.7481,0.089331
1194.6118,0.092604
1196.4754,0.096904
1198.3391,0.102122
1200.2028,0.106911
1202.0665,0.108097
1203.9301,0.102569
1205.7938,0.092442
1207.6575,0.084095
1209.5211,0.080648
1211.3848,0.080510
1213.2485,0.081685
1215.1121,0.083307
1216.9758,0.085009
1218.8395,0.086696
1220.7031,0.088211
1222.5668,0.089655
1224.4305,0.091231
1226.2941,0.092811
1228.1578,0.094277
1230.0215,0.095738
1231.8852,0.097086
1233.7488,0.098240
1235.6125,0.099588
1237.4762,0.101130
1239.3398,0.102793
1241.2035,0.104779
1243.0672,0.107070
1244.9308,0.109561
1246.7945,0.112427
1248.6582,0.115572
1250.5218,0.118769
1252.3855,0.121678
1254.2492,0.123366
1256.1129,0.122834
1257.9765,0.120053
1259.8402,0.116419
1261.7039,0.113818
1263.5675,0.113322
1265.4312,0.114739
1267.2949,0.117024
1269.1585,0.119527
1271.0222,0.122382
1272.8859,0.125695
1274.7495,0.129350
1276.6132,0.133200
1278.4769,0.136398
1280.3405,0.137484
1282.2042,0.134813
1284.0679,0.129088
1285.9316,0.123684
1287.7952,0.120874
1289.6589,0.120607
1291.5226,0.122632
1293.3862,0.126260
1295.2499,0.130981
1297.1136,0.136535
1298.9772,0.142454
1300.8409,0.148591
1302.7046,0.154735
1304.5682,0.159521
1306.4319,0.161257
1308.2956,0.158757
1310.1592,0.152754
1312.0229,0.146292
1313.8866,0.141279
1315.7503,0.137328
1317.6139,0.133590
1319.4776,0.130079
1321.3413,0.128713
1323.2049,0.131059
1325.0686,0.136654
1326.9323,0.143498
1328.7959,0.149452
1330.6596,0.152530
1332.5233,0.151072
1334.3869,0.144340
1336.2506,0.133467
1338.1143,0.120575
1339.9780,0.107515
1341.8416,0.097191
1343.7053,0.091827
1345.5690,0.089917
1347.4326,0.090673
1349.2963,0.093740
1351.1600,0.098606
1353.0236,0.104682
1354.8873,0.111695
1356.7510,0.117809
1358.6146,0.120286
1360.4783,0.117160
1362.3420,0.109540
1364.2056,0.101502
1366.0693,0.098613
1367.9330,0.100358
1369.7967,0.103766
1371.6603,0.107432
1373.5240,0.113564
1375.3877,0.120140
1377.2513,0.124398
1379.1150,0.129461
1380.9787,0.135142
1382.8423,0.140495
1384.7060,0.145849
1386.5697,0.153487
1388.4333,0.161554
1390.2970,0.164937
1392.1607,0.167647
1394.0244,0.171804
1395.8880,0.174465
1397.7517,0.174393
1399.6154,0.174121
1401.4790,0.172721
1403.3427,0.172643
1405.2064,0.172066
1407.0700,0.167019
1408.9337,0.158794
1410.7974,0.148505
1412.6610,0.138612
1414.5247,0.133089
1416.3884,0.130549
1418.2520,0.127095
1420.1157,0.119670
1421.9794,0.114806
1423.8431,0.111222
1425.7067,0.103729
1427.5704,0.096799
1429.4341,0.091997
1431.2977,0.088475
1433.1614,0.087093
1435.0251,0.088838
1436.8887,0.093602
1438.7524,0.095583
1440.6161,0.097270
1442.4797,0.100841
1444.3434,0.105043
1446.2071,0.110358
1448.0707,0.116863
1449.9344,0.117094
1451.7981,0.108082
1453.6618,0.096432
1455.5254,0.091952
1457.3891,0.097247
1459.2528,0.100633
1461.1164,0.100946
1462.9801,0.103395
1464.8438,0.107598
1466.7074,0.108644
1468.5711,0.107949
1470.4348,0.109205
1472.2984,0.113970
1474.1621,0.117438
1476.0258,0.118751
1477.8895,0.120197
1479.7531,0.121677
1481.6168,0.123280
1483.4805,0.122836
1485.3441,0.120848
1487.2078,0.118297
1489.0715,0.115285
1490.9351,0.109548
1492.7988,0.102840
1494.6625,0.098990
1496.5261,0.094960
1498.3898,0.089551
1500.2535,0.084815
1502.1171,0.080623
1503.9808,0.077885
1505.8445,0.078256
1507.7082,0.078528
1509.5718,0.074886
1511.4355,0.073524
1513.2992,0.072596
1515.1628,0.072603
1517.0265,0.073512
1518.8902,0.073019
1520.7538,0.075216
1522.6175,0.076763
1524.4812,0.076632
1526.3448,0.078679
1528.2085,0.079880
1530.0722,0.079760
1531.9359,0.081932
1533.7995,0.086019
1535.6632,0.085318
1537.5269,0.085235
1539.3905,0.091668
1541.2542,0.101150
1543.1179,0.101731
1544.9815,0.103424
1546.8452,0.104521
1548.7089,0.107011
1550.5725,0.111189
1552.4362,0.113488
1554.2999,0.116147
1556.1635,0.118825
1558.0272,0.128116
1559.8909,0.146591
1561.7546,0.139992
1563.6182,0.138934
1565.4819,0.142993
1567.3456,0.146947
1569.2092,0.153520
1571.0729,0.158745
1572.9366,0.159317
1574.8002,0.163648
1576.6639,0.172026
1578.5276,0.173369
1580.3912,0.172749
1582.2549,0.173024
1584.1186,0.172136
1585.9822,0.169635
1587.8459,0.165996
1589.7096,0.161876
1591.5733,0.157883
1593.4369,0.154895
1595.3006,0.153366
1597.1643,0.153359
1599.0279,0.154879
1600.8916,0.157839
1602.7553,0.161899
1604.6189,0.166018
1606.4826,0.169062
1608.3463,0.171069
1610.2099,0.171631
1612.0736,0.171130
1613.9373,0.170446
1615.8010,0.170595
1617.6646,0.168111
1619.5283,0.164308
1621.3920,0.162004
1623.2556,0.157502
1625.1193,0.149852
1626.9830,0.144146
1628.8466,0.136605
1630.7103,0.128770
1632.5740,0.123125
1634.4376,0.117926
1636.3013,0.108554
1638.1650,0.101053
1640.0286,0.097676
1641.8923,0.093435
1643.7560,0.089805
1645.6197,0.087270
1647.4833,0.081982
1649.3470,0.076997
1651.2107,0.076145
1653.0743,0.073965
1654.9380,0.066201
1656.8017,0.065008
1658.6653,0.063967
1660.5290,0.062514
1662.3927,0.061321
1664.2563,0.059237
1666.1200,0.058842
1667.9837,0.060639
1669.8474,0.063190
1671.7110,0.065476
1673.5747,0.068945
1675.4384,0.075153
1677.3020,0.081370
1679.1657,0.086143
1681.0294,0.091276
1682.8930,0.094666
1684.7567,0.090861
1686.6204,0.081986
1688.4840,0.075946
1690.3477,0.066228
1692.2114,0.056713
1694.0750,0.050570
1695.9387,0.043708
1697.8024,0.036764
1699.6661,0.035413
1701.5297,0.030790
1703.3934,0.028941
1705.2571,0.027877
1707.1207,0.024254
1708.9844,0.022076
1710.8481,0.020718
1712.7117,0.019624
1714.5754,0.019041
1716.4391,0.017904
1718.3027,0.016210
1720.1664,0.015171
1722.0301,0.015793
1723.8937,0.015831
1725.7574,0.015005
1727.6211,0.014311
1729.4848,0.013691
1731.3484,0.012909
1733.2121,0.012665
1735.0758,0.010846
1736.9394,0.009935
1738.8031,0.010884
1740.6668,0.010460
1742.5304,0.010068
1744.3941,0.010082
1746.2578,0.010076
1748.1214,0.010221
1749.9851,0.009714
1751.8488,0.008813
1753.7125,0.008422
1755.5761,0.009049
1757.4398,0.009055
1759.3035,0.008719
1761.1671,0.009176
1763.0308,0.008808
1764.8945,0.008624
1766.7581,0.009164
1768.6218,0.009104
1770.4855,0.008834
1772.3491,0.008891
1774.2128,0.008090
1776.0765,0.008262
1777.9401,0.008614
1779.8038,0.008913
1781.6675,0.008746
1783.5312,0.008895
1785.3948,0.009096
1787.2585,0.008995
1789.1222,0.009358
1790.9858,0.009741
1792.8495,0.009178
1794.7132,0.008501
1796.5768,0.008621
1798.4405,0.008756
1800.3042,0.008876
1802.1678,0.008553
1804.0315,0.008381
1805.8952,0.008688
1807.7589,0.008948
1809.6225,0.009101
1811.4862,0.008855
1813.3499,0.008383
1815.2135,0.008401
1817.0772,0.008554
1818.9409,0.008713
1820.8045,0.008729
1822.6682,0.008812
1824.5319,0.009099
1826.3955,0.008585
1828.2592,0.008632
1830.1229,0.009162
1831.9865,0.008382
1833.8502,0.008521
1835.7139,0.008899
1837.5776,0.008766
1839.4412,0.008590
1841.3049,0.008811
1843.1686,0.009239
1845.0322,0.008834
1846.8959,0.008319
1848.7596,0.008759
1850.6232,0.008940
1852.4869,0.009209
1854.3506,0.009259
1856.2142,0.009004
1858.0779,0.008564
1859.9416,0.008663
1861.8052,0.009005
1863.6689,0.009090
1865.5326,0.008854
1867.3963,0.009014
1869.2599,0.009100
1871.1236,0.008908
1872.9873,0.009137
1874.8509,0.009407
1876.7146,0.009370
1878.5783,0.009213
1880.4419,0.009138
1882.3056,0.009289
1884.1693,0.009305
1886.0329,0.009350
1887.8966,0.009425
1889.7603,0.009332
1891.6240,0.009282
1893.4876,0.009649
1895.3513,0.009088
1897.2150,0.008712
1899.0786,0.009346
1900.9423,0.009827
1902.8060,0.009860
1904.6696,0.009703
1906.5333,0.009334
1908.3970,0.009336
1910.2606,0.009427
1912.1243,0.009243
1913.9880,0.009399
1915.8516,0.009723
1917.7153,0.009700
1919.5790,0.009349
1921.4427,0.009483
1923.3063,0.009566
1925.1700,0.009017
1927.0337,0.009336
1928.8973,0.009918
1930.7610,0.010095
1932.6247,0.009664
1934.4883,0.009536
1936.3520,0.009711
1938.2157,0.010197
1940.0793,0.010237
1941.9430,0.009794
1943.8067,0.009285
1945.6704,0.008760
1947.5340,0.008172
1949.3977,0.008429
1951.2614,0.008616
1953.1250,0.008771
1954.9887,0.008569
1956.8524,0.007800
1958.7160,0.008071
1960.5797,0.008455
1962.4434,0.007094
1964.3070,0.006579
1966.1707,0.007336
1968.0344,0.007657
1969.8980,0.007009
1971.7617,0.006203
1973.6254,0.005548
1975.4891,0.006019
1977.3527,0.007075
1979.2164,0.008535
1981.0801,0.009159
1982.9437,0.008609
1984.8074,0.008958
1986.6711,0.010500
1988.5347,0.010265
1990.3984,0.009379
1992.2621,0.009072
1994.1257,0.009352
1995.9894,0.009820
1997.8531,0.009874
1999.7167,0.009562
2001.5804,0.009478
2003.4441,0.009723
2005.3078,0.009460
2007.1714,0.009025
2009.0351,0.009683
2010.8988,0.009770
2012.7624,0.009517
2014.6261,0.009815
2016.4898,0.010240
2018.3534,0.009802
2020.2171,0.009290
2022.0808,0.008843
2023.9444,0.010625
2025.8081,0.012324
2027.6718,0.011192
2029.5355,0.009892
2031.3991,0.010700
2033.2628,0.011142
2035.1265,0.011249
2036.9901,0.012559
2038.8538,0.012257
2040.7175,0.011432
2042.5811,0.012746
2044.4448,0.013130
2046.3085,0.012859
2048.1721,0.012981
2050.0358,0.013164
2051.8995,0.013689
2053.7631,0.013495
2055.6268,0.012920
2057.4905,0.013365
2059.3542,0.013273
2061.2178,0.012832
2063.0815,0.012924
2064.9452,0.013203
2066.8088,0.012979
2068.6725,0.013159
2070.5362,0.012730
2072.3998,0.012117
2074.2635,0.012256
2076.1272,0.012642
2077.9908,0.012737
2079.8545,0.012704
2081.7182,0.012702
2083.5819,0.013144
2085.4455,0.013882
2087.3092,0.013913
2089.1729,0.013077
2091.0365,0.012729
2092.9002,0.012381
2094.7639,0.012107
2096.6275,0.012392
2098.4912,0.012614
2100.3549,0.012021
2102.2185,0.011734
2104.0822,0.012636
2105.9459,0.013514
2107.8095,0.013550
2109.6732,0.013629
2111.5369,0.013510
2113.4006,0.012830
2115.2642,0.012692
2117.1279,0.013242
2118.9916,0.013259
2120.8552,0.013013
2122.7189,0.012916
2124.5826,0.012693
2126.4462,0.012271
2128.3099,0.012004
2130.1736,0.011896
2132.0372,0.011708
2133.9009,0.011336
2135.7646,0.011351
2137.6282,0.011069
2139.4919,0.010301
2141.3556,0.009010
2143.2193,0.008366
2145.0829,0.008651
2146.9466,0.009594
2148.8103,0.010590
2150.6739,0.009410
2152.5376,0.007040
2154.4013,0.005610
2156.2649,0.004558
2158.1286,0.004088
2159.9923,0.004796
2161.8559,0.006439
2163.7196,0.007348
2165.5833,0.008169
2167.4470,0.007961
2169.3106,0.007543
2171.1743,0.007981
2173.0380,0.007840
2174.9016,0.008099
2176.7653,0.009444
2178.6290,0.009794
2180.4926,0.009048
2182.3563,0.007771
2184.2200,0.009209
2186.0836,0.012318
2187.9473,0.012744
2189.8110,0.010819
2191.6746,0.010593
2193.5383,0.011258
2195.4020,0.010848
2197.2657,0.011665
2199.1293,0.012510
2200.9930,0.011632
2202.8567,0.011689
2204.7203,0.012111
2206.5840,0.012320
2208.4477,0.012761
2210.3113,0.012624
2212.1750,0.012187
2214.0387,0.012488
2215.9023,0.012944
2217.7660,0.013437
2219.6297,0.013802
2221.4934,0.013521
2223.3570,0.013334
2225.2207,0.014184
2227.0844,0.014666
2228.9480,0.014815
2230.8117,0.015974
2232.6754,0.016944
2234.5390,0.016643
2236.4027,0.016403
2238.2664,0.016524
2240.1300,0.016985
2241.9937,0.016947
2243.8574,0.017307
2245.7210,0.017232
2247.5847,0.016630
2249.4484,0.017364
2251.3121,0.018042
2253.1757,0.017737
2255.0394,0.018245
2256.9031,0.018768
2258.7667,0.018748
2260.6304,0.018611
2262.4941,0.018632
2264.3577,0.019209
2266.2214,0.019545
2268.0851,0.019626
2269.9487,0.020236
2271.8124,0.020701
2273.6761,0.020534
2275.5397,0.020435
2277.4034,0.020768
2279.2671,0.020822
2281.1308,0.020816
2282.9944,0.021512
2284.8581,0.022281
2286.7218,0.022336
2288.5854,0.022127
2290.4491,0.022164
2292.3128,0.022389
2294.1764,0.022612
2296.0401,0.022627
2297.9038,0.022369
2299.7674,0.022437
2301.6311,0.022771
2303.4948,0.022933
2305.3585,0.023164
2307.2221,0.023302
2309.0858,0.023230
2310.9495,0.023393
2312.8131,0.023462
2314.6768,0.023164
2316.5405,0.023117
2318.4041,0.023494
2320.2678,0.023954
2322.1315,0.024196
2323.9951,0.024172
2325.8588,0.023884
2327.7225,0.023116
2329.5861,0.022667
2331.4498,0.022871
2333.3135,0.022873
2335.1772,0.022885
2337.0408,0.023073
2338.9045,0.023484
2340.7682,0.023841
2342.6318,0.023586
2344.4955,0.023337
2346.3592,0.023374
2348.2228,0.023136
2350.0865,0.023110
2351.9502,0.023540
2353.8138,0.023783
2355.6775,0.023823
2357.5412,0.023677
2359.4049,0.023680
2361.2685,0.023895
2363.1322,0.024143
2364.9959,0.024174
2366.8595,0.024393
2368.7232,0.024103
2370.5869,0.023967
2372.4505,0.024580
2374.3142,0.024961
2376.1779,0.025174
2378.0415,0.025074
2379.9052,0.025118
2381.7689,0.025609
2383.6325,0.025813
2385.4962,0.025944
2387.3599,0.025848
2389.2236,0.025855
2391.0872,0.026117
2392.9509,0.026293
2394.8146,0.026439
2396.6782,0.026428
2398.5419,0.026550
2400.4056,0.026851
2402.2692,0.026903
2404.1329,0.026802
2405.9966,0.026740
2407.8602,0.026889
2409.7239,0.027143
2411.5876,0.027284
2413.4512,0.027320
2415.3149,0.027256
2417.1786,0.027324
2419.0423,0.027570
2420.9059,0.027935
2422.7696,0.028197
2424.6333,0.028122
2426.4969,0.028193
2428.3606,0.028478
2430.2243,0.028672
2432.0879,0.028796
2433.9516,0.029107
2435.8153,0.029250
2437.6789,0.029195
2439.5426,0.029373
2441.4063,0.029832
2443.2700,0.030053
2445.1336,0.029960
2446.9973,0.029992
2448.8610,0.030264
2450.7246,0.030531
2452.5883,0.030621
2454.4520,0.030871
2456.3156,0.031158
2458.1793,0.031509
2460.0430,0.031875
2461.9066,0.031868
2463.7703,0.031933
2465.6340,0.031970
2467.4976,0.031628
2469.3613,0.031436
2471.2250,0.032235
2473.0887,0.032881
2474.9523,0.032730
2476.8160,0.032943
2478.6797,0.033405
2480.5433,0.033534
2482.4070,0.033698
2484.2707,0.033784
2486.1343,0.033972
2487.9980,0.034405
2489.8617,0.034709
2491.7253,0.034842
2493.5890,0.034985
2495.4527,0.034781
2497.3164,0.034790
2499.1800,0.035039
2501.0437,0.035193
2502.9074,0.035716
2504.7710,0.036096
2506.6347,0.035771
2508.4984,0.035811
2510.3620,0.036110
2512.2257,0.036281
2514.0894,0.036393
2515.9530,0.036370
2517.8167,0.036914
2519.6804,0.037424
2521.5440,0.037433
2523.4077,0.037568
2525.2714,0.037737
2527.1351,0.037770
