Wavenumber,Intensity
650.4205,0.142651
652.2841,0.138470
654.1478,0.136997
656.0115,0.133964
657.8751,0.130598
659.7388,0.129618
661.6025,0.128884
663.4661,0.127860
665.3298,0.127856
667.1935,0.126476
669.0571,0.125481
670.9208,0.124439
672.7845,0.124026
674.6481,0.123368
676.5118,0.123326
678.3755,0.121319
680.2392,0.120744
682.1028,0.120621
683.9665,0.119915
685.8302,0.118911
687.6938,0.119546
689.5575,0.119655
691.4212,0.120263
693.2848,0.119944
695.1485,0.120718
697.0122,0.120863
698.8758,0.120396
700.7395,0.120463
702.6032,0.121110
704.4669,0.120150
706.3305,0.117203
708.1942,0.113065
710.0579,0.110327
711.9215,0.106695
713.7852,0.103276
715.6489,0.100577
717.5125,0.098165
719.3762,0.095976
721.2399,0.093499
723.1035,0.090347
724.9672,0.088557
726.8309,0.087038
728.6945,0.085207
730.5582,0.083372
732.4219,0.082176
734.2856,0.080509
736.1492,0.078719
738.0129,0.078144
739.8766,0.078664
741.7402,0.079254
743.6039,0.079673
745.4676,0.079621
747.3312,0.079076
749.1949,0.077732
751.0586,0.076795
752.9222,0.077061
754.7859,0.077196
756.6496,0.075606
758.5132,0.074182
760.3769,0.073651
762.2406,0.073568
764.1043,0.073406
765.9679,0.073538
767.8316,0.073466
769.6953,0.073255
771.5589,0.073512
773.4226,0.074134
775.2863,0.074773
777.1499,0.075442
779.0136,0.075858
780.8773,0.076303
782.7409,0.076595
784.6046,0.077057
786.4683,0.077783
788.3320,0.078406
790.1956,0.079091
792.0593,0.079735
793.9230,0.080056
795.7866,0.080549
797.6503,0.080825
799.5140,0.080933
801.3776,0.080691
803.2413,0.080527
805.1050,0.080354
806.9686,0.079970
808.8323,0.079112
810.6960,0.077930
812.5596,0.076100
814.4233,0.073953
816.2870,0.072122
818.1507,0.071084
820.0143,0.070134
821.8780,0.068948
823.7417,0.067816
825.6053,0.067596
827.4690,0.067932
829.3327,0.067622
831.1963,0.065251
833.0600,0.061027
834.9237,0.057324
836.7873,0.055345
838.6510,0.054456
840.5147,0.054133
842.3784,0.053908
844.2420,0.053785
846.1057,0.054141
847.9694,0.054461
849.8330,0.054326
851.6967,0.054013
853.5604,0.053642
855.4240,0.053395
857.2877,0.053573
859.1514,0.053885
861.0150,0.054167
862.8787,0.054428
864.7424,0.054664
866.6060,0.055033
868.4697,0.055417
870.3334,0.055746
872.1971,0.056177
874.0607,0.056563
875.9244,0.056877
877.7881,0.057183
879.6517,0.057417
881.5154,0.057847
883.3791,0.058459
885.2427,0.059178
887.1064,0.059695
888.9701,0.060232
890.8337,0.060731
892.6974,0.060952
894.5611,0.061154
896.4247,0.061390
898.2884,0.061606
900.1521,0.061788
902.0158,0.062166
903.8794,0.063049
905.7431,0.064407
907.6068,0.066065
909.4704,0.067920
911.3341,0.070099
913.1978,0.072500
915.0614,0.073858
916.9251,0.071444
918.7888,0.066314
920.6524,0.062591
922.5161,0.061190
924.3798,0.061248
926.2435,0.061832
928.1071,0.062120
929.9708,0.062417
931.8345,0.063058
933.6981,0.063926
935.5618,0.064833
937.4255,0.065913
939.2891,0.067013
941.1528,0.068131
943.0165,0.069258
944.8801,0.070542
946.7438,0.071858
948.6075,0.073170
950.4711,0.074425
952.3348,0.075973
954.1985,0.077807
956.0622,0.079498
957.9258,0.081002
959.7895,0.082449
961.6532,0.083780
963.5168,0.085167
965.3805,0.086641
967.2442,0.088291
969.1078,0.090269
970.9715,0.092359
972.8352,0.094677
974.6988,0.098090
976.5625,0.103054
978.4262,0.110537
980.2899,0.120593
982.1535,0.125862
984.0172,0.117710
985.8809,0.106223
987.7445,0.102127
989.6082,0.103039
991.4719,0.104903
993.3355,0.106854
995.1992,0.108813
997.0629,0.110650
998.9265,0.112255
1000.7902,0.113842
1002.6539,0.115477
1004.5175,0.117083
1006.3812,0.118662
1008.2449,0.120227
1010.1086,0.121695
1011.9722,0.123034
1013.8359,0.123950
1015.6996,0.124591
1017.5632,0.125034
1019.4269,0.125281
1021.2906,0.125296
1023.1542,0.125050
1025.0179,0.124547
1026.8816,0.124006
1028.7452,0.123485
1030.6089,0.123126
1032.4726,0.122948
1034.3362,0.122910
1036.1999,0.122913
1038.0636,0.123157
1039.9273,0.123535
1041.7909,0.124057
1043.6546,0.124628
1045.5183,0.125090
1047.3819,0.124970
1049.2456,0.123562
1051.1093,0.120124
1052.9729,0.115133
1054.8366,0.109974
1056.7003,0.106089
1058.5639,0.103829
1060.4276,0.102537
1062.2913,0.101502
1064.1550,0.100707
1066.0186,0.100153
1067.8823,0.099629
1069.7460,0.099037
1071.6096,0.098504
1073.4733,0.097899
1075.3370,0.097205
1077.2006,0.096551
1079.0643,0.096099
1080.9280,0.095855
1082.7916,0.095880
1084.6553,0.095932
1086.5190,0.095960
1088.3826,0.095808
1090.2463,0.095491
1092.1100,0.095451
1093.9737,0.095552
1095.8373,0.095726
1097.7010,0.096276
1099.5647,0.096935
1101.4283,0.097612
1103.2920,0.098131
1105.1557,0.097893
1107.0193,0.096474
1108.8830,0.093666
1110.7467,0.089437
1112.6103,0.084456
1114.4740,0.079447
1116.3377,0.074968
1118.2014,0.071312
1120.0650,0.068554
1121.9287,0.066474
1123.7924,0.064912
1125.6560,0.063667
1127.5197,0.062425
1129.3834,0.061150
1131.2470,0.059884
1133.1107,0.058564
1134.9744,0.057308
1136.8380,0.056242
1138.7017,0.055503
1140.5654,0.055120
1142.4290,0.055115
1144.2927,0.055315
1146.1564,0.055605
1148.0201,0.056066
1149.8837,0.056675
1151.7474,0.057287
1153.6111,0.057677
1155.4747,0.057950
1157.3384,0.057949
1159.2021,0.057503
1161.0657,0.056898
1162.9294,0.056356
1164.7931,0.055741
1166.6567,0.055154
1168.5204,0.054725
1170.3841,0.054216
1172.2477,0.053427
1174.1114,0.051925
1175.9751,0.049611
1177.8388,0.047112
1179.7024,0.045211
1181.5661,0.044078
1183.4298,0.043653
1185.2934,0.043757
1187.1571,0.044168
1189.0208,0.044646
1190.8844,0.044998
1192.7481,0.045182
1194.6118,0.045226
1196.4754,0.045189
1198.3391,0.045107
1200.2028,0.045082
1202.0665,0.045116
1203.9301,0.044974
1205.7938,0.044650
1207.6575,0.044609
1209.5211,0.044934
1211.3848,0.045534
1213.2485,0.046319
1215.1121,0.047193
1216.9758,0.048246
1218.8395,0.049397
1220.7031,0.050559
1222.5668,0.051706
1224.4305,0.052872
1226.2941,0.054085
1228.1578,0.055345
1230.0215,0.056596
1231.8852,0.057676
1233.7488,0.058592
1235.6125,0.059377
1237.4762,0.060008
1239.3398,0.060556
1241.2035,0.060903
1243.0672,0.061170
1244.9308,0.061515
1246.7945,0.061806
1248.6582,0.062037
1250.5218,0.062247
1252.3855,0.062332
1254.2492,0.062329
1256.1129,0.062432
1257.9765,0.062469
1259.8402,0.062457
1261.7039,0.062485
1263.5675,0.062530
1265.4312,0.062577
1267.2949,0.062604
1269.1585,0.062568
1271.0222,0.062457
1272.8859,0.062389
1274.7495,0.062337
1276.6132,0.062364
1278.4769,0.062522
1280.3405,0.062760
1282.2042,0.062965
1284.0679,0.063104
1285.9316,0.063281
1287.7952,0.063708
1289.6589,0.064254
1291.5226,0.065005
1293.3862,0.066023
1295.2499,0.067289
1297.1136,0.068916
1298.9772,0.070873
1300.8409,0.073158
1302.7046,0.075649
1304.5682,0.077464
1306.4319,0.077106
1308.2956,0.073144
1310.1592,0.066108
1312.0229,0.059105
1313.8866,0.054553
1315.7503,0.052878
1317.6139,0.053042
1319.4776,0.053969
1321.3413,0.054830
1323.2049,0.055616
1325.0686,0.056711
1326.9323,0.058052
1328.7959,0.059411
1330.6596,0.060452
1332.5233,0.061053
1334.3869,0.061112
1336.2506,0.061046
1338.1143,0.061569
1339.9780,0.062417
1341.8416,0.062170
1343.7053,0.061704
1345.5690,0.061883
1347.4326,0.062456
1349.2963,0.063501
1351.1600,0.064819
1353.0236,0.066177
1354.8873,0.067836
1356.7510,0.069431
1358.6146,0.070619
1360.4783,0.071973
1362.3420,0.074463
1364.2056,0.076377
1366.0693,0.076773
1367.9330,0.077835
1369.7967,0.079235
1371.6603,0.079973
1373.5240,0.081622
1375.3877,0.083572
1377.2513,0.084236
1379.1150,0.085321
1380.9787,0.086888
1382.8423,0.088455
1384.7060,0.090423
1386.5697,0.093835
1388.4333,0.097858
1390.2970,0.099273
1392.1607,0.099796
1394.0244,0.100719
1395.8880,0.100314
1397.7517,0.097761
1399.6154,0.094581
1401.4790,0.090805
1403.3427,0.087643
1405.2064,0.083726
1407.0700,0.077509
1408.9337,0.070658
1410.7974,0.064423
1412.6610,0.059791
1414.5247,0.057037
1416.3884,0.056142
1418.2520,0.057704
1420.1157,0.060451
1421.9794,0.060594
1423.8431,0.059351
1425.7067,0.055677
1427.5704,0.051518
1429.4341,0.049136
1431.2977,0.047914
1433.1614,0.046934
1435.0251,0.047027
1436.8887,0.049080
1438.7524,0.049779
1440.6161,0.049204
1442.4797,0.049260
1444.3434,0.049443
1446.2071,0.049778
1448.0707,0.050340
1449.9344,0.049708
1451.7981,0.047746
1453.6618,0.045449
1455.5254,0.044728
1457.3891,0.047831
1459.2528,0.048377
1461.1164,0.046254
1462.9801,0.045221
1464.8438,0.045590
1466.7074,0.045156
1468.5711,0.043410
1470.4348,0.042302
1472.2984,0.043300
1474.1621,0.044309
1476.0258,0.043876
1477.8895,0.043364
1479.7531,0.042843
1481.6168,0.042860
1483.4805,0.042733
1485.3441,0.042533
1487.2078,0.043059
1489.0715,0.044713
1490.9351,0.046154
1492.7988,0.044904
1494.6625,0.044025
1496.5261,0.045183
1498.3898,0.046754
1500.2535,0.046590
1502.1171,0.045619
1503.9808,0.044595
1505.8445,0.046005
1507.7082,0.052692
1509.5718,0.052018
1511.4355,0.050336
1513.2992,0.049842
1515.1628,0.049915
1517.0265,0.051244
1518.8902,0.051707
1520.7538,0.052736
1522.6175,0.055216
1524.4812,0.055046
1526.3448,0.055573
1528.2085,0.056279
1530.0722,0.055691
1531.9359,0.056060
1533.7995,0.058417
1535.6632,0.058275
1537.5269,0.056972
1539.3905,0.059864
1541.2542,0.066559
1543.1179,0.066456
1544.9815,0.066761
1546.8452,0.066463
1548.7089,0.066559
1550.5725,0.068344
1552.4362,0.069170
1554.2999,0.069683
1556.1635,0.070487
1558.0272,0.074486
1559.8909,0.086027
1561.7546,0.081950
1563.6182,0.079638
1565.4819,0.080854
1567.3456,0.082197
1569.2092,0.085049
1571.0729,0.088386
1572.9366,0.088144
1574.8002,0.089783
1576.6639,0.095890
1578.5276,0.098100
1580.3912,0.097900
1582.2549,0.099349
1584.1186,0.101031
1585.9822,0.102347
1587.8459,0.103275
1589.7096,0.103814
1591.5733,0.104149
1593.4369,0.104288
1595.3006,0.104089
1597.1643,0.103424
1599.0279,0.102047
1600.8916,0.100553
1602.7553,0.099210
1604.6189,0.097663
1606.4826,0.096019
1608.3463,0.094746
1610.2099,0.093159
1612.0736,0.091027
1613.9373,0.088517
1615.8010,0.086685
1617.6646,0.084063
1619.5283,0.080100
1621.3920,0.077245
1623.2556,0.074919
1625.1193,0.071441
1626.9830,0.067995
1628.8466,0.064189
1630.7103,0.059916
1632.5740,0.056147
1634.4376,0.053604
1636.3013,0.051519
1638.1650,0.048854
1640.0286,0.047143
1641.8923,0.046089
1643.7560,0.045331
1645.6197,0.045573
1647.4833,0.046870
1649.3470,0.046274
1651.2107,0.045585
1653.0743,0.048123
1654.9380,0.050325
1656.8017,0.048372
1658.6653,0.047531
1660.5290,0.047318
1662.3927,0.047434
1664.2563,0.046869
1666.1200,0.045430
1667.9837,0.044654
1669.8474,0.044592
1671.7110,0.043885
1673.5747,0.043201
1675.4384,0.043859
1677.3020,0.044464
1679.1657,0.044617
1681.0294,0.045552
1682.8930,0.047173
1684.7567,0.050373
1686.6204,0.050218
1688.4840,0.048572
1690.3477,0.047569
1692.2114,0.046112
1694.0750,0.044598
1695.9387,0.043425
1697.8024,0.041948
1699.6661,0.041140
1701.5297,0.039633
1703.3934,0.037278
1705.2571,0.035269
1707.1207,0.032682
1708.9844,0.030325
1710.8481,0.028514
1712.7117,0.027113
1714.5754,0.026385
1716.4391,0.026555
1718.3027,0.026893
1720.1664,0.025903
1722.0301,0.024796
1723.8937,0.023939
1725.7574,0.022917
1727.6211,0.021814
1729.4848,0.020802
1731.3484,0.019848
1733.2121,0.019381
1735.0758,0.019138
1736.9394,0.017781
1738.8031,0.016812
1740.6668,0.016313
1742.5304,0.015687
1744.3941,0.014825
1746.2578,0.013968
1748.1214,0.013361
1749.9851,0.012995
1751.8488,0.012869
1753.7125,0.012321
1755.5761,0.011686
1757.4398,0.011465
1759.3035,0.011248
1761.1671,0.011148
1763.0308,0.011282
1764.8945,0.011016
1766.7581,0.010627
1768.6218,0.010537
1770.4855,0.010610
1772.3491,0.010958
1774.2128,0.011175
1776.0765,0.010798
1777.9401,0.010534
1779.8038,0.010656
1781.6675,0.010891
1783.5312,0.010867
1785.3948,0.010834
1787.2585,0.010725
1789.1222,0.010630
1790.9858,0.010843
1792.8495,0.011173
1794.7132,0.011127
1796.5768,0.010889
1798.4405,0.010827
1800.3042,0.011008
1802.1678,0.011239
1804.0315,0.011088
1805.8952,0.010851
1807.7589,0.010927
1809.6225,0.011095
1811.4862,0.011047
1813.3499,0.010837
1815.2135,0.010839
1817.0772,0.010981
1818.9409,0.011041
1820.8045,0.010996
1822.6682,0.010840
1824.5319,0.010781
1826.3955,0.010842
1828.2592,0.010824
1830.1229,0.010989
1831.9865,0.011190
1833.8502,0.010959
1835.7139,0.010735
1837.5776,0.010892
1839.4412,0.010926
1841.3049,0.010603
1843.1686,0.010659
1845.0322,0.011077
1846.8959,0.011007
1848.7596,0.010927
1850.6232,0.011060
1852.4869,0.010967
1854.3506,0.010964
1856.2142,0.011165
1858.0779,0.011069
1859.9416,0.011184
1861.8052,0.011300
1863.6689,0.010916
1865.5326,0.010749
1867.3963,0.010905
1869.2599,0.011321
1871.1236,0.011430
1872.9873,0.011130
1874.8509,0.010903
1876.7146,0.010684
1878.5783,0.010621
1880.4419,0.010837
1882.3056,0.011030
1884.1693,0.011230
1886.0329,0.011482
1887.8966,0.011125
1889.7603,0.010670
1891.6240,0.010651
1893.4876,0.010830
1895.3513,0.011007
1897.2150,0.010826
1899.0786,0.010805
1900.9423,0.010914
1902.8060,0.010914
1904.6696,0.011141
1906.5333,0.011051
1908.3970,0.010746
1910.2606,0.010995
1912.1243,0.011143
1913.9880,0.010813
1915.8516,0.010502
1917.7153,0.010386
1919.5790,0.010440
1921.4427,0.010529
1923.3063,0.010541
1925.1700,0.010616
1927.0337,0.010590
1928.8973,0.010463
1930.7610,0.010570
1932.6247,0.010714
1934.4883,0.010704
1936.3520,0.010424
1938.2157,0.009675
1940.0793,0.009389
1941.9430,0.009805
1943.8067,0.009189
1945.6704,0.008324
1947.5340,0.008484
1949.3977,0.008582
1951.2614,0.008649
1953.1250,0.008779
1954.9887,0.008727
1956.8524,0.008409
1958.7160,0.007574
1960.5797,0.007425
1962.4434,0.007549
1964.3070,0.007457
1966.1707,0.006908
1968.0344,0.005385
1969.8980,0.004985
1971.7617,0.005706
1973.6254,0.005530
1975.4891,0.004751
1977.3527,0.005249
1979.2164,0.007206
1981.0801,0.007713
1982.9437,0.006990
1984.8074,0.007201
1986.6711,0.007652
1988.5347,0.007754
1990.3984,0.008098
1992.2621,0.008169
1994.1257,0.007827
1995.9894,0.008272
1997.8531,0.008540
1999.7167,0.007315
2001.5804,0.006283
2003.4441,0.006199
2005.3078,0.006355
2007.1714,0.006286
2009.0351,0.006703
2010.8988,0.006693
2012.7624,0.005355
2014.6261,0.005299
2016.4898,0.005600
2018.3534,0.004971
2020.2171,0.005254
2022.0808,0.005464
2023.9444,0.005209
2025.8081,0.005561
2027.6718,0.007149
2029.5355,0.007574
2031.3991,0.006484
2033.2628,0.005498
2035.1265,0.004719
2036.9901,0.005836
2038.8538,0.007631
2040.7175,0.007543
2042.5811,0.007474
2044.4448,0.008477
2046.3085,0.008780
2048.1721,0.008998
2050.0358,0.009736
2051.8995,0.010268
2053.7631,0.010673
2055.6268,0.010642
2057.4905,0.010592
2059.3542,0.010232
2061.2178,0.009942
2063.0815,0.010515
2064.9452,0.010445
2066.8088,0.010608
2068.6725,0.011194
2070.5362,0.011177
2072.3998,0.011224
2074.2635,0.011635
2076.1272,0.011847
2077.9908,0.011813
2079.8545,0.011713
2081.7182,0.011779
2083.5819,0.012293
2085.4455,0.012811
2087.3092,0.012819
2089.1729,0.012839
2091.0365,0.012855
2092.9002,0.012522
2094.7639,0.012402
2096.6275,0.012391
2098.4912,0.012183
2100.3549,0.012454
2102.2185,0.012841
2104.0822,0.012444
2105.9459,0.012150
2107.8095,0.012394
2109.6732,0.012990
2111.5369,0.013641
2113.4006,0.013496
2115.2642,0.013052
2117.1279,0.012907
2118.9916,0.012947
2120.8552,0.013034
2122.7189,0.012904
2124.5826,0.012669
2126.4462,0.012023
2128.3099,0.011400
2130.1736,0.010973
2132.0372,0.010264
2133.9009,0.010088
2135.7646,0.010762
2137.6282,0.011126
2139.4919,0.010691
2141.3556,0.010219
2143.2193,0.009747
2145.0829,0.009172
2146.9466,0.008667
2148.8103,0.008103
2150.6739,0.007411
2152.5376,0.007478
2154.4013,0.007405
2156.2649,0.005785
2158.1286,0.005855
2159.9923,0.007698
2161.8559,0.008289
2163.7196,0.008284
2165.5833,0.007822
2167.4470,0.007691
2169.3106,0.008526
2171.1743,0.008493
2173.0380,0.007779
2174.9016,0.007811
2176.7653,0.008565
2178.6290,0.010017
2180.4926,0.011167
2182.3563,0.010533
2184.2200,0.009481
2186.0836,0.009854
2187.9473,0.010520
2189.8110,0.010034
2191.6746,0.009350
2193.5383,0.009363
2195.4020,0.009769
2197.2657,0.011211
2199.1293,0.011375
2200.9930,0.010106
2202.8567,0.010436
2204.7203,0.011983
2206.5840,0.012186
2208.4477,0.011587
2210.3113,0.010946
2212.1750,0.011085
2214.0387,0.011990
2215.9023,0.012329
2217.7660,0.012729
2219.6297,0.013623
2221.4934,0.013360
2223.3570,0.012085
2225.2207,0.011991
2227.0844,0.013047
2228.9480,0.013035
2230.8117,0.012803
2232.6754,0.013192
2234.5390,0.013174
2236.4027,0.013390
2238.2664,0.013681
2240.1300,0.013263
2241.9937,0.013182
2243.8574,0.013709
2245.7210,0.013866
2247.5847,0.013552
2249.4484,0.014124
2251.3121,0.015026
2253.1757,0.014653
2255.0394,0.014334
2256.9031,0.014335
2258.7667,0.014659
2260.6304,0.014947
2262.4941,0.014776
2264.3577,0.014703
2266.2214,0.015004
2268.0851,0.015264
2269.9487,0.015381
2271.8124,0.015540
2273.6761,0.015529
2275.5397,0.015605
2277.4034,0.015813
2279.2671,0.016029
2281.1308,0.016541
2282.9944,0.017220
2284.8581,0.017285
2286.7218,0.017207
2288.5854,0.017005
2290.4491,0.016614
2292.3128,0.016744
2294.1764,0.017153
2296.0401,0.017293
2297.9038,0.017495
2299.7674,0.017652
2301.6311,0.017387
2303.4948,0.017292
2305.3585,0.017306
2307.2221,0.017000
2309.0858,0.016903
2310.9495,0.017203
2312.8131,0.017364
2314.6768,0.017183
2316.5405,0.017422
2318.4041,0.017884
2320.2678,0.018058
2322.1315,0.018118
2323.9951,0.018356
2325.8588,0.018158
2327.7225,0.017264
2329.5861,0.016775
2331.4498,0.016842
2333.3135,0.016833
2335.1772,0.016833
2337.0408,0.016757
2338.9045,0.016889
2340.7682,0.017374
2342.6318,0.017694
2344.4955,0.017824
2346.3592,0.017872
2348.2228,0.017508
2350.0865,0.017113
2351.9502,0.016934
2353.8138,0.017010
2355.6775,0.017065
2357.5412,0.016831
2359.4049,0.016873
2361.2685,0.017120
2363.1322,0.017213
2364.9959,0.017263
2366.8595,0.017241
2368.7232,0.017275
2370.5869,0.017198
2372.4505,0.017349
2374.3142,0.017658
2376.1779,0.017623
2378.0415,0.017579
2379.9052,0.017705
2381.7689,0.017687
2383.6325,0.017671
2385.4962,0.017701
2387.3599,0.017530
2389.2236,0.017386
2391.0872,0.017508
2392.9509,0.017596
2394.8146,0.017591
2396.6782,0.017700
2398.5419,0.017712
2400.4056,0.017788
2402.2692,0.017728
2404.1329,0.017554
2405.9966,0.017691
2407.8602,0.017698
2409.7239,0.017836
2411.5876,0.017976
2413.4512,0.017975
2415.3149,0.018153
2417.1786,0.018198
2419.0423,0.018165
2420.9059,0.018353
2422.7696,0.018502
2424.6333,0.018549
2426.4969,0.018426
2428.3606,0.018117
2430.2243,0.018011
2432.0879,0.018265
2433.9516,0.018528
2435.8153,0.018742
2437.6789,0.018766
2439.5426,0.018636
2441.4063,0.018338
2443.2700,0.018216
2445.1336,0.018687
2446.9973,0.018989
2448.8610,0.018746
2450.7246,0.018575
2452.5883,0.018748
2454.4520,0.019105
2456.3156,0.019249
2458.1793,0.019176
2460.0430,0.018987
2461.9066,0.018993
2463.7703,0.018921
2465.6340,0.018541
2467.4976,0.018442
2469.3613,0.018783
2471.2250,0.019078
2473.0887,0.019167
2474.9523,0.018856
2476.8160,0.018657
2478.6797,0.019073
2480.5433,0.019260
2482.4070,0.019125
2484.2707,0.019212
2486.1343,0.019142
2487.9980,0.018940
2489.8617,0.019332
2491.7253,0.019626
2493.5890,0.019734
2495.4527,0.019866
2497.3164,0.019656
2499.1800,0.019590
2501.0437,0.019627
2502.9074,0.019583
2504.7710,0.019423
2506.6347,0.019381
2508.4984,0.019396
2510.3620,0.019681
2512.2257,0.020138
2514.0894,0.020259
2515.9530,0.020424
2517.8167,0.020551
2519.6804,0.020602
2521.5440,0.020601
2523.4077,0.020595
2525.2714,0.020339
2527.1351,0.019988
