Wavenumber,Intensity
650.4205,0.217070
652.2841,0.214149
654.1478,0.209438
656.0115,0.202260
657.8751,0.199066
659.7388,0.194565
661.6025,0.192071
663.4661,0.190972
665.3298,0.188224
667.1935,0.187974
669.0571,0.188028
670.9208,0.184033
672.7845,0.183756
674.6481,0.183071
676.5118,0.184302
678.3755,0.185533
680.2392,0.186394
682.1028,0.185271
683.9665,0.184154
685.8302,0.183675
687.6938,0.185412
689.5575,0.184653
691.4212,0.182948
693.2848,0.183768
695.1485,0.185194
697.0122,0.185214
698.8758,0.186472
700.7395,0.187061
702.6032,0.187100
704.4669,0.184008
706.3305,0.179375
708.1942,0.172488
710.0579,0.165383
711.9215,0.158373
713.7852,0.152138
715.6489,0.145312
717.5125,0.139727
719.3762,0.134791
721.2399,0.130588
723.1035,0.126995
724.9672,0.123041
726.8309,0.119294
728.6945,0.116450
730.5582,0.113192
732.4219,0.110679
734.2856,0.108270
736.1492,0.106003
738.0129,0.104321
739.8766,0.104806
741.7402,0.106439
743.6039,0.107988
745.4676,0.108406
747.3312,0.107874
749.1949,0.107095
751.0586,0.105596
752.9222,0.104745
754.7859,0.104250
756.6496,0.102823
758.5132,0.101476
760.3769,0.100579
762.2406,0.100240
764.1043,0.099599
765.9679,0.099020
767.8316,0.098607
769.6953,0.098668
771.5589,0.098886
773.4226,0.099272
775.2863,0.100136
777.1499,0.101189
779.0136,0.102093
780.8773,0.103448
782.7409,0.104998
784.6046,0.106451
786.4683,0.107472
788.3320,0.108564
790.1956,0.109882
792.0593,0.111052
793.9230,0.112408
795.7866,0.113942
797.6503,0.114820
799.5140,0.115466
801.3776,0.115898
803.2413,0.115639
805.1050,0.114641
806.9686,0.113109
808.8323,0.111395
810.6960,0.109390
812.5596,0.106812
814.4233,0.104047
816.2870,0.101516
818.1507,0.099178
820.0143,0.096805
821.8780,0.094965
823.7417,0.093847
825.6053,0.093515
827.4690,0.094211
829.3327,0.094643
831.1963,0.090346
833.0600,0.081237
834.9237,0.073205
836.7873,0.069316
838.6510,0.067737
840.5147,0.066854
842.3784,0.066453
844.2420,0.066167
846.1057,0.065959
847.9694,0.065828
849.8330,0.065569
851.6967,0.065071
853.5604,0.064691
855.4240,0.064705
857.2877,0.064797
859.1514,0.064852
861.0150,0.064900
862.8787,0.065198
864.7424,0.065445
866.6060,0.065747
868.4697,0.066137
870.3334,0.066450
872.1971,0.066792
874.0607,0.067134
875.9244,0.067361
877.7881,0.067708
879.6517,0.068258
881.5154,0.068900
883.3791,0.069498
885.2427,0.070194
887.1064,0.071013
888.9701,0.071536
890.8337,0.071793
892.6974,0.072166
894.5611,0.072652
896.4247,0.073130
898.2884,0.073534
900.1521,0.074361
902.0158,0.075690
903.8794,0.077484
905.7431,0.080201
907.6068,0.083927
909.4704,0.088202
911.3341,0.093269
913.1978,0.099195
915.0614,0.102610
916.9251,0.097356
918.7888,0.085263
920.6524,0.075431
922.5161,0.071298
924.3798,0.070385
926.2435,0.070575
928.1071,0.071271
929.9708,0.072095
931.8345,0.072895
933.6981,0.073873
935.5618,0.075122
937.4255,0.076474
939.2891,0.077730
941.1528,0.078981
943.0165,0.080308
944.8801,0.081745
946.7438,0.083241
948.6075,0.084777
950.4711,0.086430
952.3348,0.088168
954.1985,0.090018
956.0622,0.092088
957.9258,0.094130
959.7895,0.095923
961.6532,0.097668
963.5168,0.099619
965.3805,0.101802
967.2442,0.104300
969.1078,0.107222
970.9715,0.110626
972.8352,0.114656
974.6988,0.120626
976.5625,0.129943
978.4262,0.144903
980.2899,0.165286
982.1535,0.173755
984.0172,0.151976
985.8809,0.124586
987.7445,0.113655
989.6082,0.113379
991.4719,0.115177
993.3355,0.117045
995.1992,0.118897
997.0629,0.120912
998.9265,0.122993
1000.7902,0.124951
1002.6539,0.126832
1004.5175,0.128863
1006.3812,0.130928
1008.2449,0.132841
1010.1086,0.134464
1011.9722,0.135852
1013.8359,0.137141
1015.6996,0.138288
1017.5632,0.139195
1019.4269,0.140044
1021.2906,0.140793
1023.1542,0.141361
1025.0179,0.141707
1026.8816,0.142056
1028.7452,0.142461
1030.6089,0.142798
1032.4726,0.143355
1034.3362,0.144298
1036.1999,0.145594
1038.0636,0.147132
1039.9273,0.148902
1041.7909,0.151137
1043.6546,0.153606
1045.5183,0.155854
1047.3819,0.156962
1049.2456,0.155303
1051.1093,0.149305
1052.9729,0.140406
1054.8366,0.132089
1056.7003,0.126408
1058.5639,0.123250
1060.4276,0.121878
1062.2913,0.121310
1064.1550,0.120821
1066.0186,0.120695
1067.8823,0.120935
1069.7460,0.121115
1071.6096,0.121356
1073.4733,0.121598
1075.3370,0.121896
1077.2006,0.122303
1079.0643,0.122826
1080.9280,0.123705
1082.7916,0.125012
1084.6553,0.126441
1086.5190,0.127988
1088.3826,0.129816
1090.2463,0.131822
1092.1100,0.133956
1093.9737,0.136469
1095.8373,0.139398
1097.7010,0.142703
1099.5647,0.146324
1101.4283,0.150026
1103.2920,0.153161
1105.1557,0.154877
1107.0193,0.153949
1108.8830,0.149235
1110.7467,0.140756
1112.6103,0.130177
1114.4740,0.119613
1116.3377,0.110173
1118.2014,0.102284
1120.0650,0.096417
1121.9287,0.092388
1123.7924,0.089470
1125.6560,0.087058
1127.5197,0.084924
1129.3834,0.082902
1131.2470,0.080912
1133.1107,0.079021
1134.9744,0.077393
1136.8380,0.076008
1138.7017,0.074975
1140.5654,0.074500
1142.4290,0.074450
1144.2927,0.074743
1146.1564,0.075181
1148.0201,0.075682
1149.8837,0.076392
1151.7474,0.077165
1153.6111,0.077842
1155.4747,0.078385
1157.3384,0.078711
1159.2021,0.078759
1161.0657,0.078733
1162.9294,0.078983
1164.7931,0.079630
1166.6567,0.080728
1168.5204,0.082210
1170.3841,0.083718
1172.2477,0.084366
1174.1114,0.082970
1175.9751,0.079000
1177.8388,0.073912
1179.7024,0.069834
1181.5661,0.067531
1183.4298,0.066529
1185.2934,0.066418
1187.1571,0.066754
1189.0208,0.067011
1190.8844,0.067122
1192.7481,0.067122
1194.6118,0.067047
1196.4754,0.066876
1198.3391,0.066689
1200.2028,0.066587
1202.0665,0.066525
1203.9301,0.066514
1205.7938,0.066615
1207.6575,0.066914
1209.5211,0.067459
1211.3848,0.068256
1213.2485,0.069164
1215.1121,0.070012
1216.9758,0.071078
1218.8395,0.072482
1220.7031,0.073959
1222.5668,0.075195
1224.4305,0.076446
1226.2941,0.077871
1228.1578,0.079233
1230.0215,0.080578
1231.8852,0.081941
1233.7488,0.083228
1235.6125,0.084334
1237.4762,0.085386
1239.3398,0.086388
1241.2035,0.087133
1243.0672,0.087853
1244.9308,0.088534
1246.7945,0.089055
1248.6582,0.089581
1250.5218,0.090084
1252.3855,0.090586
1254.2492,0.091063
1256.1129,0.091557
1257.9765,0.092254
1259.8402,0.093190
1261.7039,0.093881
1263.5675,0.094317
1265.4312,0.094654
1267.2949,0.094759
1269.1585,0.094659
1271.0222,0.094478
1272.8859,0.094218
1274.7495,0.094156
1276.6132,0.094495
1278.4769,0.095171
1280.3405,0.096130
1282.2042,0.097150
1284.0679,0.098364
1285.9316,0.099797
1287.7952,0.101694
1289.6589,0.103733
1291.5226,0.105899
1293.3862,0.108560
1295.2499,0.111798
1297.1136,0.115467
1298.9772,0.119770
1300.8409,0.125205
1302.7046,0.131247
1304.5682,0.135740
1306.4319,0.135230
1308.2956,0.126098
1310.1592,0.109584
1312.0229,0.093455
1313.8866,0.082914
1315.7503,0.078652
1317.6139,0.078913
1319.4776,0.080806
1321.3413,0.082504
1323.2049,0.084453
1325.0686,0.086985
1326.9323,0.089634
1328.7959,0.092127
1330.6596,0.094148
1332.5233,0.095635
1334.3869,0.096507
1336.2506,0.097714
1338.1143,0.100174
1339.9780,0.102844
1341.8416,0.101643
1343.7053,0.100170
1345.5690,0.100426
1347.4326,0.101483
1349.2963,0.103254
1351.1600,0.105245
1353.0236,0.107480
1354.8873,0.110398
1356.7510,0.112949
1358.6146,0.115058
1360.4783,0.118327
1362.3420,0.124537
1364.2056,0.127883
1366.0693,0.128185
1367.9330,0.131379
1369.7967,0.135060
1371.6603,0.137305
1373.5240,0.142458
1375.3877,0.147252
1377.2513,0.148701
1379.1150,0.151818
1380.9787,0.156053
1382.8423,0.160579
1384.7060,0.165522
1386.5697,0.173655
1388.4333,0.181556
1390.2970,0.183961
1392.1607,0.184799
1394.0244,0.186125
1395.8880,0.182812
1397.7517,0.175218
1399.6154,0.166815
1401.4790,0.156625
1403.3427,0.149237
1405.2064,0.138792
1407.0700,0.123325
1408.9337,0.108642
1410.7974,0.096184
1412.6610,0.087022
1414.5247,0.082533
1416.3884,0.082746
1418.2520,0.088367
1420.1157,0.094385
1421.9794,0.094589
1423.8431,0.092733
1425.7067,0.084213
1427.5704,0.076081
1429.4341,0.072111
1431.2977,0.070162
1433.1614,0.069197
1435.0251,0.070720
1436.8887,0.075429
1438.7524,0.075063
1440.6161,0.074389
1442.4797,0.075073
1444.3434,0.076113
1446.2071,0.077491
1448.0707,0.078778
1449.9344,0.076505
1451.7981,0.073874
1453.6618,0.071398
1455.5254,0.072902
1457.3891,0.079992
1459.2528,0.077947
1461.1164,0.073255
1462.9801,0.072161
1464.8438,0.074118
1466.7074,0.072337
1468.5711,0.069342
1470.4348,0.068663
1472.2984,0.072989
1474.1621,0.073766
1476.0258,0.072042
1477.8895,0.069526
1479.7531,0.068362
1481.6168,0.069091
1483.4805,0.068804
1485.3441,0.069148
1487.2078,0.071839
1489.0715,0.076744
1490.9351,0.078351
1492.7988,0.074227
1494.6625,0.074093
1496.5261,0.078143
1498.3898,0.081278
1500.2535,0.080593
1502.1171,0.078673
1503.9808,0.078570
1505.8445,0.086087
1507.7082,0.100075
1509.5718,0.094513
1511.4355,0.090043
1513.2992,0.088433
1515.1628,0.090023
1517.0265,0.094397
1518.8902,0.094064
1520.7538,0.097739
1522.6175,0.100637
1524.4812,0.098909
1526.3448,0.099912
1528.2085,0.099798
1530.0722,0.098232
1531.9359,0.100017
1533.7995,0.105533
1535.6632,0.103590
1537.5269,0.102837
1539.3905,0.110695
1541.2542,0.122562
1543.1179,0.121599
1544.9815,0.120932
1546.8452,0.117945
1548.7089,0.118697
1550.5725,0.122431
1552.4362,0.123681
1554.2999,0.126588
1556.1635,0.128868
1558.0272,0.139132
1559.8909,0.156385
1561.7546,0.145880
1563.6182,0.142563
1565.4819,0.144537
1567.3456,0.146748
1569.2092,0.153196
1571.0729,0.156992
1572.9366,0.155858
1574.8002,0.159710
1576.6639,0.170255
1578.5276,0.171731
1580.3912,0.170716
1582.2549,0.172608
1584.1186,0.175258
1585.9822,0.176751
1587.8459,0.177903
1589.7096,0.179017
1591.5733,0.179198
1593.4369,0.178739
1595.3006,0.177644
1597.1643,0.175464
1599.0279,0.172527
1600.8916,0.169814
1602.7553,0.167188
1604.6189,0.164315
1606.4826,0.161620
1608.3463,0.159544
1610.2099,0.156154
1612.0736,0.151875
1613.9373,0.147363
1615.8010,0.145244
1617.6646,0.139281
1619.5283,0.131113
1621.3920,0.126439
1623.2556,0.122013
1625.1193,0.113750
1626.9830,0.107429
1628.8466,0.099784
1630.7103,0.091184
1632.5740,0.084716
1634.4376,0.081171
1636.3013,0.077429
1638.1650,0.071233
1640.0286,0.068242
1641.8923,0.066507
1643.7560,0.066807
1645.6197,0.070566
1647.4833,0.075418
1649.3470,0.073557
1651.2107,0.074276
1653.0743,0.082251
1654.9380,0.083311
1656.8017,0.079230
1658.6653,0.077737
1660.5290,0.077523
1662.3927,0.078319
1664.2563,0.076155
1666.1200,0.073813
1667.9837,0.074122
1669.8474,0.074827
1671.7110,0.072664
1673.5747,0.071828
1675.4384,0.073914
1677.3020,0.074343
1679.1657,0.076661
1681.0294,0.079971
1682.8930,0.085205
1684.7567,0.092122
1686.6204,0.089017
1688.4840,0.087271
1690.3477,0.084712
1692.2114,0.081095
1694.0750,0.078694
1695.9387,0.078829
1697.8024,0.075230
1699.6661,0.074940
1701.5297,0.067045
1703.3934,0.061346
1705.2571,0.057420
1707.1207,0.049704
1708.9844,0.044351
1710.8481,0.040727
1712.7117,0.038288
1714.5754,0.038505
1716.4391,0.039158
1718.3027,0.038297
1720.1664,0.033101
1722.0301,0.031352
1723.8937,0.029755
1725.7574,0.027700
1727.6211,0.026108
1729.4848,0.025819
1731.3484,0.025206
1733.2121,0.026436
1735.0758,0.024393
1736.9394,0.020026
1738.8031,0.020157
1740.6668,0.019093
1742.5304,0.018753
1744.3941,0.018354
1746.2578,0.017785
1748.1214,0.018028
1749.9851,0.017641
1751.8488,0.016299
1753.7125,0.013826
1755.5761,0.013797
1757.4398,0.013768
1759.3035,0.013192
1761.1671,0.014076
1763.0308,0.013516
1764.8945,0.012326
1766.7581,0.012818
1768.6218,0.013722
1770.4855,0.014667
1772.3491,0.016469
1774.2128,0.014551
1776.0765,0.013510
1777.9401,0.012763
1779.8038,0.013570
1781.6675,0.013444
1783.5312,0.013355
1785.3948,0.013476
1787.2585,0.012811
1789.1222,0.012812
1790.9858,0.014608
1792.8495,0.015655
1794.7132,0.014361
1796.5768,0.013960
1798.4405,0.013790
1800.3042,0.014445
1802.1678,0.014415
1804.0315,0.013598
1805.8952,0.013156
1807.7589,0.013326
1809.6225,0.013914
1811.4862,0.014367
1813.3499,0.013478
1815.2135,0.012759
1817.0772,0.012558
1818.9409,0.012467
1820.8045,0.012474
1822.6682,0.012792
1824.5319,0.014011
1826.3955,0.014040
1828.2592,0.014134
1830.1229,0.015187
1831.9865,0.013701
1833.8502,0.012831
1835.7139,0.012513
1837.5776,0.013178
1839.4412,0.013034
1841.3049,0.012910
1843.1686,0.014262
1845.0322,0.015174
1846.8959,0.013803
1848.7596,0.013133
1850.6232,0.012247
1852.4869,0.012612
1854.3506,0.012433
1856.2142,0.012616
1858.0779,0.012539
1859.9416,0.012922
1861.8052,0.012809
1863.6689,0.012726
1865.5326,0.012929
1867.3963,0.014716
1869.2599,0.015433
1871.1236,0.013743
1872.9873,0.012356
1874.8509,0.012218
1876.7146,0.012374
1878.5783,0.012812
1880.4419,0.012780
1882.3056,0.012510
1884.1693,0.012098
1886.0329,0.012256
1887.8966,0.012766
1889.7603,0.013448
1891.6240,0.012528
1893.4876,0.012733
1895.3513,0.012908
1897.2150,0.012593
1899.0786,0.012263
1900.9423,0.012567
1902.8060,0.012640
1904.6696,0.012868
1906.5333,0.012623
1908.3970,0.012646
1910.2606,0.012479
1912.1243,0.012695
1913.9880,0.012531
1915.8516,0.012288
1917.7153,0.012936
1919.5790,0.013125
1921.4427,0.012808
1923.3063,0.012952
1925.1700,0.012320
1927.0337,0.011753
1928.8973,0.011406
1930.7610,0.012107
1932.6247,0.012033
1934.4883,0.012038
1936.3520,0.011572
1938.2157,0.011615
1940.0793,0.011380
1941.9430,0.012589
1943.8067,0.012602
1945.6704,0.011664
1947.5340,0.010473
1949.3977,0.010666
1951.2614,0.010331
1953.1250,0.009986
1954.9887,0.009083
1956.8524,0.008600
1958.7160,0.008385
1960.5797,0.008573
1962.4434,0.008094
1964.3070,0.008130
1966.1707,0.007057
1968.0344,0.006241
1969.8980,0.006110
1971.7617,0.005909
1973.6254,0.004361
1975.4891,0.004704
1977.3527,0.006161
1979.2164,0.009155
1981.0801,0.009646
1982.9437,0.008745
1984.8074,0.008174
1986.6711,0.009678
1988.5347,0.009662
1990.3984,0.008984
1992.2621,0.008264
1994.1257,0.008241
1995.9894,0.008151
1997.8531,0.008618
1999.7167,0.008900
2001.5804,0.009264
2003.4441,0.008245
2005.3078,0.007548
2007.1714,0.007368
2009.0351,0.007910
2010.8988,0.006981
2012.7624,0.006152
2014.6261,0.006341
2016.4898,0.007462
2018.3534,0.006029
2020.2171,0.005977
2022.0808,0.006234
2023.9444,0.006746
2025.8081,0.006981
2027.6718,0.006894
2029.5355,0.005804
2031.3991,0.005937
2033.2628,0.005851
2035.1265,0.007098
2036.9901,0.008278
2038.8538,0.008404
2040.7175,0.007337
2042.5811,0.008073
2044.4448,0.008979
2046.3085,0.010146
2048.1721,0.011032
2050.0358,0.011959
2051.8995,0.011190
2053.7631,0.010697
2055.6268,0.011245
2057.4905,0.012490
2059.3542,0.012787
2061.2178,0.012895
2063.0815,0.013000
2064.9452,0.013898
2066.8088,0.013516
2068.6725,0.013317
2070.5362,0.013300
2072.3998,0.013812
2074.2635,0.014055
2076.1272,0.013976
2077.9908,0.014157
2079.8545,0.014862
2081.7182,0.014686
2083.5819,0.014561
2085.4455,0.014530
2087.3092,0.015350
2089.1729,0.015851
2091.0365,0.015440
2092.9002,0.014961
2094.7639,0.015262
2096.6275,0.015186
2098.4912,0.015464
2100.3549,0.015579
2102.2185,0.015770
2104.0822,0.015689
2105.9459,0.015669
2107.8095,0.015104
2109.6732,0.014987
2111.5369,0.015067
2113.4006,0.015779
2115.2642,0.016127
2117.1279,0.016158
2118.9916,0.015737
2120.8552,0.015658
2122.7189,0.015792
2124.5826,0.015775
2126.4462,0.015209
2128.3099,0.014859
2130.1736,0.013763
2132.0372,0.013556
2133.9009,0.013445
2135.7646,0.012839
2137.6282,0.012629
2139.4919,0.012597
2141.3556,0.011615
2143.2193,0.011613
2145.0829,0.011194
2146.9466,0.010711
2148.8103,0.009575
2150.6739,0.008340
2152.5376,0.007465
2154.4013,0.007211
2156.2649,0.006005
2158.1286,0.006479
2159.9923,0.007208
2161.8559,0.009600
2163.7196,0.011101
2165.5833,0.010486
2167.4470,0.008671
2169.3106,0.008936
2171.1743,0.009427
2173.0380,0.010129
2174.9016,0.009744
2176.7653,0.010281
2178.6290,0.010954
2180.4926,0.010740
2182.3563,0.009918
2184.2200,0.011373
2186.0836,0.012728
2187.9473,0.013809
2189.8110,0.013740
2191.6746,0.013306
2193.5383,0.012503
2195.4020,0.012087
2197.2657,0.012585
2199.1293,0.013792
2200.9930,0.013788
2202.8567,0.014007
2204.7203,0.014469
2206.5840,0.015639
2208.4477,0.015917
2210.3113,0.015865
2212.1750,0.015133
2214.0387,0.015560
2215.9023,0.016256
2217.7660,0.016304
2219.6297,0.016054
2221.4934,0.016156
2223.3570,0.016381
2225.2207,0.016760
2227.0844,0.016942
2228.9480,0.016656
2230.8117,0.015703
2232.6754,0.016342
2234.5390,0.017683
2236.4027,0.018122
2238.2664,0.017806
2240.1300,0.017542
2241.9937,0.017123
2243.8574,0.017966
2245.7210,0.018269
2247.5847,0.018327
2249.4484,0.018416
2251.3121,0.018520
2253.1757,0.017859
2255.0394,0.017532
2256.9031,0.017948
2258.7667,0.019005
2260.6304,0.019373
2262.4941,0.019343
2264.3577,0.019065
2266.2214,0.019193
2268.0851,0.019774
2269.9487,0.020286
2271.8124,0.020062
2273.6761,0.020383
2275.5397,0.020709
2277.4034,0.021108
2279.2671,0.021299
2281.1308,0.021815
2282.9944,0.022310
2284.8581,0.022602
2286.7218,0.022613
2288.5854,0.022687
2290.4491,0.022663
2292.3128,0.022698
2294.1764,0.022463
2296.0401,0.022606
2297.9038,0.022744
2299.7674,0.022762
2301.6311,0.022781
2303.4948,0.023052
2305.3585,0.023037
2307.2221,0.022933
2309.0858,0.022989
2310.9495,0.023196
2312.8131,0.023128
2314.6768,0.023076
2316.5405,0.023018
2318.4041,0.023202
2320.2678,0.023310
2322.1315,0.023382
2323.9951,0.023153
2325.8588,0.022478
2327.7225,0.021647
2329.5861,0.021100
2331.4498,0.021223
2333.3135,0.021621
2335.1772,0.021187
2337.0408,0.020908
2338.9045,0.021137
2340.7682,0.021822
2342.6318,0.021931
2344.4955,0.021756
2346.3592,0.021800
2348.2228,0.021745
2350.0865,0.021501
2351.9502,0.021295
2353.8138,0.020913
2355.6775,0.020828
2357.5412,0.020524
2359.4049,0.020594
2361.2685,0.020427
2363.1322,0.020600
2364.9959,0.020789
2366.8595,0.021018
2368.7232,0.021092
2370.5869,0.021266
2372.4505,0.022287
2374.3142,0.023267
2376.1779,0.023210
2378.0415,0.023024
2379.9052,0.022983
2381.7689,0.023376
2383.6325,0.023552
2385.4962,0.023387
2387.3599,0.023070
2389.2236,0.023374
2391.0872,0.023616
2392.9509,0.023534
2394.8146,0.023312
2396.6782,0.023408
2398.5419,0.023627
2400.4056,0.023556
2402.2692,0.023496
2404.1329,0.024026
2405.9966,0.023989
2407.8602,0.023874
2409.7239,0.024168
2411.5876,0.024628
2413.4512,0.024746
2415.3149,0.024556
2417.1786,0.024195
2419.0423,0.024108
2420.9059,0.024330
2422.7696,0.024728
2424.6333,0.024730
2426.4969,0.024862
2428.3606,0.024983
2430.2243,0.024944
2432.0879,0.024637
2433.9516,0.024650
2435.8153,0.024879
2437.6789,0.025240
2439.5426,0.025426
2441.4063,0.025582
2443.2700,0.025742
2445.1336,0.025607
2446.9973,0.024939
2448.8610,0.025078
2450.7246,0.025566
2452.5883,0.025553
2454.4520,0.025264
2456.3156,0.025018
2458.1793,0.024796
2460.0430,0.025200
2461.9066,0.025610
2463.7703,0.025846
2465.6340,0.025655
2467.4976,0.025332
2469.3613,0.025049
2471.2250,0.025169
2473.0887,0.025431
2474.9523,0.025586
2476.8160,0.025436
2478.6797,0.025772
2480.5433,0.025814
2482.4070,0.025772
2484.2707,0.026058
2486.1343,0.026528
2487.9980,0.026584
2489.8617,0.026471
2491.7253,0.026257
2493.5890,0.026184
2495.4527,0.026061
2497.3164,0.026366
2499.1800,0.026963
2501.0437,0.027028
2502.9074,0.026841
2504.7710,0.027316
2506.6347,0.027138
2508.4984,0.026610
2510.3620,0.027201
2512.2257,0.027665
2514.0894,0.027365
2515.9530,0.027379
2517.8167,0.027391
2519.6804,0.027729
2521.5440,0.027895
2523.4077,0.027904
2525.2714,0.027941
2527.1351,0.028184
