Wavenumber,Intensity
650.4205,0.164053
652.2841,0.160495
654.1478,0.155680
656.0115,0.150730
657.8751,0.149288
659.7388,0.147131
661.6025,0.144535
663.4661,0.141185
665.3298,0.138644
667.1935,0.139003
669.0571,0.143236
670.9208,0.141400
672.7845,0.138243
674.6481,0.136660
676.5118,0.136987
678.3755,0.137508
680.2392,0.139063
682.1028,0.139064
683.9665,0.137919
685.8302,0.136593
687.6938,0.137033
689.5575,0.137228
691.4212,0.137871
693.2848,0.137680
695.1485,0.137238
697.0122,0.137428
698.8758,0.138167
700.7395,0.138161
702.6032,0.137706
704.4669,0.136037
706.3305,0.133372
708.1942,0.129319
710.0579,0.124754
711.9215,0.119493
713.7852,0.114170
715.6489,0.109916
717.5125,0.106205
719.3762,0.102462
721.2399,0.099241
723.1035,0.095763
724.9672,0.092914
726.8309,0.090316
728.6945,0.087309
730.5582,0.084895
732.4219,0.083580
734.2856,0.081463
736.1492,0.079351
738.0129,0.077863
739.8766,0.077497
741.7402,0.078240
743.6039,0.079831
745.4676,0.081024
747.3312,0.081023
749.1949,0.080191
751.0586,0.079368
752.9222,0.078452
754.7859,0.077437
756.6496,0.076504
758.5132,0.075597
760.3769,0.074785
762.2406,0.074523
764.1043,0.074371
765.9679,0.074364
767.8316,0.074082
769.6953,0.073953
771.5589,0.074427
773.4226,0.074386
775.2863,0.074506
777.1499,0.075535
779.0136,0.076126
780.8773,0.076898
782.7409,0.077878
784.6046,0.078642
786.4683,0.079797
788.3320,0.080995
790.1956,0.081932
792.0593,0.082785
793.9230,0.083648
795.7866,0.084516
797.6503,0.085338
799.5140,0.085760
801.3776,0.085841
803.2413,0.086015
805.1050,0.085799
806.9686,0.084734
808.8323,0.083283
810.6960,0.081771
812.5596,0.079793
814.4233,0.077660
816.2870,0.075899
818.1507,0.073990
820.0143,0.071762
821.8780,0.070401
823.7417,0.069951
825.6053,0.070071
827.4690,0.070838
829.3327,0.071114
831.1963,0.067717
833.0600,0.060634
834.9237,0.054461
836.7873,0.051658
838.6510,0.050505
840.5147,0.049920
842.3784,0.049719
844.2420,0.049707
846.1057,0.049712
847.9694,0.049489
849.8330,0.049022
851.6967,0.048830
853.5604,0.048829
855.4240,0.048735
857.2877,0.048566
859.1514,0.048724
861.0150,0.048914
862.8787,0.049018
864.7424,0.049250
866.6060,0.049539
868.4697,0.049717
870.3334,0.049937
872.1971,0.050150
874.0607,0.050364
875.9244,0.050689
877.7881,0.051118
879.6517,0.051445
881.5154,0.051661
883.3791,0.052057
885.2427,0.052550
887.1064,0.052952
888.9701,0.053338
890.8337,0.053746
892.6974,0.054122
894.5611,0.054449
896.4247,0.054985
898.2884,0.055538
900.1521,0.056167
902.0158,0.057082
903.8794,0.058585
905.7431,0.060748
907.6068,0.063523
909.4704,0.066734
911.3341,0.070348
913.1978,0.074180
915.0614,0.076173
916.9251,0.071837
918.7888,0.062823
920.6524,0.055881
922.5161,0.052852
924.3798,0.052259
926.2435,0.052632
928.1071,0.053048
929.9708,0.053563
931.8345,0.054184
933.6981,0.054905
935.5618,0.055729
937.4255,0.056545
939.2891,0.057342
941.1528,0.058238
943.0165,0.059121
944.8801,0.059944
946.7438,0.061000
948.6075,0.062201
950.4711,0.063235
952.3348,0.064360
954.1985,0.065764
956.0622,0.067101
957.9258,0.068280
959.7895,0.069576
961.6532,0.070863
963.5168,0.072210
965.3805,0.073654
967.2442,0.075389
969.1078,0.077462
970.9715,0.079758
972.8352,0.082481
974.6988,0.086516
976.5625,0.093070
978.4262,0.103732
980.2899,0.118231
982.1535,0.124433
984.0172,0.109173
985.8809,0.089341
987.7445,0.081108
989.6082,0.080640
991.4719,0.081931
993.3355,0.083364
995.1992,0.084853
997.0629,0.086306
998.9265,0.087663
1000.7902,0.089027
1002.6539,0.090456
1004.5175,0.091883
1006.3812,0.093213
1008.2449,0.094635
1010.1086,0.095970
1011.9722,0.097063
1013.8359,0.098148
1015.6996,0.099146
1017.5632,0.099859
1019.4269,0.100357
1021.2906,0.100835
1023.1542,0.101290
1025.0179,0.101676
1026.8816,0.101953
1028.7452,0.102072
1030.6089,0.102249
1032.4726,0.102803
1034.3362,0.103604
1036.1999,0.104515
1038.0636,0.105580
1039.9273,0.106906
1041.7909,0.108564
1043.6546,0.110420
1045.5183,0.112261
1047.3819,0.113228
1049.2456,0.112119
1051.1093,0.107939
1052.9729,0.101580
1054.8366,0.095574
1056.7003,0.091511
1058.5639,0.089299
1060.4276,0.088261
1062.2913,0.087729
1064.1550,0.087422
1066.0186,0.087492
1067.8823,0.087879
1069.7460,0.088096
1071.6096,0.088243
1073.4733,0.088409
1075.3370,0.088592
1077.2006,0.088959
1079.0643,0.089470
1080.9280,0.090180
1082.7916,0.091142
1084.6553,0.092269
1086.5190,0.093610
1088.3826,0.095037
1090.2463,0.096519
1092.1100,0.098223
1093.9737,0.100217
1095.8373,0.102534
1097.7010,0.105030
1099.5647,0.107664
1101.4283,0.110499
1103.2920,0.112877
1105.1557,0.114017
1107.0193,0.113202
1108.8830,0.109710
1110.7467,0.103451
1112.6103,0.095614
1114.4740,0.087612
1116.3377,0.080577
1118.2014,0.074941
1120.0650,0.070713
1121.9287,0.067636
1123.7924,0.065437
1125.6560,0.063928
1127.5197,0.062527
1129.3834,0.060916
1131.2470,0.059414
1133.1107,0.058051
1134.9744,0.056768
1136.8380,0.055771
1138.7017,0.055220
1140.5654,0.055051
1142.4290,0.055021
1144.2927,0.055109
1146.1564,0.055315
1148.0201,0.055630
1149.8837,0.056136
1151.7474,0.056712
1153.6111,0.057289
1155.4747,0.057685
1157.3384,0.057860
1159.2021,0.057974
1161.0657,0.058094
1162.9294,0.058365
1164.7931,0.059022
1166.6567,0.059974
1168.5204,0.061138
1170.3841,0.062296
1172.2477,0.062845
1174.1114,0.061800
1175.9751,0.058769
1177.8388,0.055128
1179.7024,0.052302
1181.5661,0.050607
1183.4298,0.049882
1185.2934,0.049779
1187.1571,0.049978
1189.0208,0.050269
1190.8844,0.050524
1192.7481,0.050634
1194.6118,0.050525
1196.4754,0.050351
1198.3391,0.050367
1200.2028,0.050458
1202.0665,0.050557
1203.9301,0.050709
1205.7938,0.050788
1207.6575,0.050929
1209.5211,0.051337
1211.3848,0.051874
1213.2485,0.052520
1215.1121,0.053314
1216.9758,0.054159
1218.8395,0.055038
1220.7031,0.055938
1222.5668,0.056788
1224.4305,0.057743
1226.2941,0.058723
1228.1578,0.059582
1230.0215,0.060427
1231.8852,0.061322
1233.7488,0.062060
1235.6125,0.062652
1237.4762,0.063279
1239.3398,0.063843
1241.2035,0.064331
1243.0672,0.064726
1244.9308,0.065069
1246.7945,0.065516
1248.6582,0.065936
1250.5218,0.066357
1252.3855,0.066742
1254.2492,0.067094
1256.1129,0.067465
1257.9765,0.067752
1259.8402,0.068164
1261.7039,0.068736
1263.5675,0.069288
1265.4312,0.069718
1267.2949,0.069785
1269.1585,0.069514
1271.0222,0.069318
1272.8859,0.069263
1274.7495,0.069277
1276.6132,0.069567
1278.4769,0.070139
1280.3405,0.070831
1282.2042,0.071650
1284.0679,0.072556
1285.9316,0.073592
1287.7952,0.074967
1289.6589,0.076579
1291.5226,0.078372
1293.3862,0.080439
1295.2499,0.082898
1297.1136,0.085795
1298.9772,0.089236
1300.8409,0.093438
1302.7046,0.098005
1304.5682,0.101143
1306.4319,0.100236
1308.2956,0.092969
1310.1592,0.080486
1312.0229,0.068224
1313.8866,0.060300
1315.7503,0.057310
1317.6139,0.057480
1319.4776,0.058926
1321.3413,0.060502
1323.2049,0.062138
1325.0686,0.063941
1326.9323,0.065743
1328.7959,0.067590
1330.6596,0.069251
1332.5233,0.070408
1334.3869,0.070949
1336.2506,0.071189
1338.1143,0.072024
1339.9780,0.073607
1341.8416,0.074061
1343.7053,0.073862
1345.5690,0.074191
1347.4326,0.075034
1349.2963,0.076232
1351.1600,0.077606
1353.0236,0.079184
1354.8873,0.081286
1356.7510,0.083327
1358.6146,0.084780
1360.4783,0.086414
1362.3420,0.089857
1364.2056,0.093073
1366.0693,0.094316
1367.9330,0.096281
1369.7967,0.098876
1371.6603,0.100604
1373.5240,0.103318
1375.3877,0.106539
1377.2513,0.108319
1379.1150,0.110785
1380.9787,0.114253
1382.8423,0.117717
1384.7060,0.121259
1386.5697,0.126003
1388.4333,0.131538
1390.2970,0.133893
1392.1607,0.134485
1394.0244,0.133961
1395.8880,0.130542
1397.7517,0.125270
1399.6154,0.119452
1401.4790,0.113670
1403.3427,0.108365
1405.2064,0.100592
1407.0700,0.090132
1408.9337,0.079712
1410.7974,0.070242
1412.6610,0.063580
1414.5247,0.060172
1416.3884,0.059464
1418.2520,0.061870
1420.1157,0.067013
1421.9794,0.069108
1423.8431,0.067609
1425.7067,0.062098
1427.5704,0.056231
1429.4341,0.052502
1431.2977,0.050930
1433.1614,0.050487
1435.0251,0.050941
1436.8887,0.053189
1438.7524,0.054757
1440.6161,0.054969
1442.4797,0.055647
1444.3434,0.056333
1446.2071,0.056813
1448.0707,0.057128
1449.9344,0.056235
1451.7981,0.054269
1453.6618,0.051943
1455.5254,0.050766
1457.3891,0.053434
1459.2528,0.055075
1461.1164,0.053832
1462.9801,0.053267
1464.8438,0.053827
1466.7074,0.053506
1468.5711,0.051816
1470.4348,0.050523
1472.2984,0.050961
1474.1621,0.051938
1476.0258,0.051827
1477.8895,0.051302
1479.7531,0.051058
1481.6168,0.051446
1483.4805,0.051511
1485.3441,0.051296
1487.2078,0.051812
1489.0715,0.053656
1490.9351,0.055668
1492.7988,0.055097
1494.6625,0.054585
1496.5261,0.056183
1498.3898,0.058524
1500.2535,0.058913
1502.1171,0.058224
1503.9808,0.057454
1505.8445,0.058920
1507.7082,0.065725
1509.5718,0.065815
1511.4355,0.064784
1513.2992,0.064869
1515.1628,0.065220
1517.0265,0.066581
1518.8902,0.067259
1520.7538,0.068370
1522.6175,0.070617
1524.4812,0.070789
1526.3448,0.071592
1528.2085,0.072624
1530.0722,0.072477
1531.9359,0.073234
1533.7995,0.075825
1535.6632,0.076029
1537.5269,0.074910
1539.3905,0.077126
1541.2542,0.083640
1543.1179,0.085047
1544.9815,0.086068
1546.8452,0.086774
1548.7089,0.087556
1550.5725,0.089647
1552.4362,0.091030
1554.2999,0.091895
1556.1635,0.093128
1558.0272,0.096693
1559.8909,0.107402
1561.7546,0.105807
1563.6182,0.104366
1565.4819,0.105664
1567.3456,0.107431
1569.2092,0.110588
1571.0729,0.114255
1572.9366,0.114612
1574.8002,0.115903
1576.6639,0.120958
1578.5276,0.123907
1580.3912,0.124390
1582.2549,0.125869
1584.1186,0.127470
1585.9822,0.128478
1587.8459,0.129181
1589.7096,0.129664
1591.5733,0.129440
1593.4369,0.128790
1595.3006,0.127929
1597.1643,0.126482
1599.0279,0.124436
1600.8916,0.122297
1602.7553,0.120377
1604.6189,0.118653
1606.4826,0.116686
1608.3463,0.114670
1610.2099,0.112645
1612.0736,0.110368
1613.9373,0.107616
1615.8010,0.104289
1617.6646,0.098840
1619.5283,0.094462
1621.3920,0.091168
1623.2556,0.086764
1625.1193,0.081649
1626.9830,0.077379
1628.8466,0.071877
1630.7103,0.066283
1632.5740,0.061704
1634.4376,0.057228
1636.3013,0.052375
1638.1650,0.050000
1640.0286,0.049046
1641.8923,0.048259
1643.7560,0.047936
1645.6197,0.048545
1647.4833,0.050327
1649.3470,0.051251
1651.2107,0.051655
1653.0743,0.054456
1654.9380,0.057930
1656.8017,0.057078
1658.6653,0.056731
1660.5290,0.056481
1662.3927,0.055889
1664.2563,0.054936
1666.1200,0.053628
1667.9837,0.052495
1669.8474,0.051697
1671.7110,0.051174
1673.5747,0.051177
1675.4384,0.052392
1677.3020,0.054110
1679.1657,0.055271
1681.0294,0.056878
1682.8930,0.058768
1684.7567,0.062319
1686.6204,0.063784
1688.4840,0.062661
1690.3477,0.061310
1692.2114,0.059315
1694.0750,0.057096
1695.9387,0.054677
1697.8024,0.052480
1699.6661,0.050726
1701.5297,0.046998
1703.3934,0.043686
1705.2571,0.040086
1707.1207,0.035364
1708.9844,0.032088
1710.8481,0.029574
1712.7117,0.027452
1714.5754,0.025873
1716.4391,0.024872
1718.3027,0.024729
1720.1664,0.024268
1722.0301,0.023406
1723.8937,0.022363
1725.7574,0.021012
1727.6211,0.019607
1729.4848,0.018456
1731.3484,0.017431
1733.2121,0.016482
1735.0758,0.015729
1736.9394,0.014962
1738.8031,0.014242
1740.6668,0.013663
1742.5304,0.013321
1744.3941,0.012792
1746.2578,0.012220
1748.1214,0.011898
1749.9851,0.011529
1751.8488,0.011004
1753.7125,0.010630
1755.5761,0.010446
1757.4398,0.010316
1759.3035,0.010101
1761.1671,0.009918
1763.0308,0.009898
1764.8945,0.009818
1766.7581,0.009623
1768.6218,0.009509
1770.4855,0.009582
1772.3491,0.009782
1774.2128,0.009803
1776.0765,0.009619
1777.9401,0.009621
1779.8038,0.009864
1781.6675,0.010042
1783.5312,0.009925
1785.3948,0.009895
1787.2585,0.009909
1789.1222,0.009727
1790.9858,0.009691
1792.8495,0.010045
1794.7132,0.010110
1796.5768,0.009819
1798.4405,0.009630
1800.3042,0.009789
1802.1678,0.010051
1804.0315,0.010138
1805.8952,0.010103
1807.7589,0.010038
1809.6225,0.010154
1811.4862,0.010252
1813.3499,0.010041
1815.2135,0.009833
1817.0772,0.009779
1818.9409,0.009850
1820.8045,0.010097
1822.6682,0.010117
1824.5319,0.009825
1826.3955,0.009774
1828.2592,0.009889
1830.1229,0.009845
1831.9865,0.009819
1833.8502,0.009929
1835.7139,0.009958
1837.5776,0.010006
1839.4412,0.010048
1841.3049,0.009890
1843.1686,0.009984
1845.0322,0.010253
1846.8959,0.010000
1848.7596,0.009916
1850.6232,0.009963
1852.4869,0.009889
1854.3506,0.010045
1856.2142,0.010383
1858.0779,0.010505
1859.9416,0.010238
1861.8052,0.009987
1863.6689,0.010047
1865.5326,0.010140
1867.3963,0.010028
1869.2599,0.010066
1871.1236,0.010236
1872.9873,0.010025
1874.8509,0.009923
1876.7146,0.010111
1878.5783,0.010182
1880.4419,0.010100
1882.3056,0.010065
1884.1693,0.010185
1886.0329,0.010396
1887.8966,0.010375
1889.7603,0.010212
1891.6240,0.009898
1893.4876,0.009756
1895.3513,0.009770
1897.2150,0.009653
1899.0786,0.009998
1900.9423,0.010375
1902.8060,0.010328
1904.6696,0.010047
1906.5333,0.009726
1908.3970,0.009708
1910.2606,0.009797
1912.1243,0.009783
1913.9880,0.009836
1915.8516,0.010235
1917.7153,0.010713
1919.5790,0.010527
1921.4427,0.009904
1923.3063,0.009721
1925.1700,0.009649
1927.0337,0.009394
1928.8973,0.009410
1930.7610,0.009669
1932.6247,0.010002
1934.4883,0.010009
1936.3520,0.009524
1938.2157,0.009424
1940.0793,0.009485
1941.9430,0.009463
1943.8067,0.009086
1945.6704,0.008955
1947.5340,0.009518
1949.3977,0.009437
1951.2614,0.009014
1953.1250,0.008829
1954.9887,0.008799
1956.8524,0.008847
1958.7160,0.007801
1960.5797,0.006712
1962.4434,0.006801
1964.3070,0.006701
1966.1707,0.006309
1968.0344,0.005383
1969.8980,0.005364
1971.7617,0.006426
1973.6254,0.005923
1975.4891,0.005585
1977.3527,0.006145
1979.2164,0.006324
1981.0801,0.005781
1982.9437,0.005996
1984.8074,0.007066
1986.6711,0.007677
1988.5347,0.008305
1990.3984,0.008772
1992.2621,0.008160
1994.1257,0.007603
1995.9894,0.007174
1997.8531,0.006473
1999.7167,0.007198
2001.5804,0.008137
2003.4441,0.007422
2005.3078,0.006549
2007.1714,0.007039
2009.0351,0.006972
2010.8988,0.006705
2012.7624,0.007955
2014.6261,0.007840
2016.4898,0.006210
2018.3534,0.005597
2020.2171,0.005451
2022.0808,0.004740
2023.9444,0.004563
2025.8081,0.004720
2027.6718,0.005466
2029.5355,0.005991
2031.3991,0.005388
2033.2628,0.005615
2035.1265,0.006615
2036.9901,0.007097
2038.8538,0.007605
2040.7175,0.007804
2042.5811,0.007665
2044.4448,0.008134
2046.3085,0.008706
2048.1721,0.009094
2050.0358,0.009910
2051.8995,0.010106
2053.7631,0.009736
2055.6268,0.009803
2057.4905,0.010591
2059.3542,0.011314
2061.2178,0.011178
2063.0815,0.010725
2064.9452,0.010405
2066.8088,0.010123
2068.6725,0.010434
2070.5362,0.011035
2072.3998,0.011475
2074.2635,0.011728
2076.1272,0.011723
2077.9908,0.011844
2079.8545,0.012224
2081.7182,0.012316
2083.5819,0.012420
2085.4455,0.012364
2087.3092,0.012038
2089.1729,0.011550
2091.0365,0.011451
2092.9002,0.011715
2094.7639,0.011674
2096.6275,0.011593
2098.4912,0.011989
2100.3549,0.012165
2102.2185,0.012343
2104.0822,0.012753
2105.9459,0.013148
2107.8095,0.013295
2109.6732,0.013221
2111.5369,0.013206
2113.4006,0.013212
2115.2642,0.013002
2117.1279,0.012975
2118.9916,0.012669
2120.8552,0.012582
2122.7189,0.013171
2124.5826,0.013239
2126.4462,0.012757
2128.3099,0.012148
2130.1736,0.011455
2132.0372,0.010995
2133.9009,0.011292
2135.7646,0.011406
2137.6282,0.011321
2139.4919,0.011255
2141.3556,0.010004
2143.2193,0.009226
2145.0829,0.009260
2146.9466,0.009494
2148.8103,0.009672
2150.6739,0.007878
2152.5376,0.005286
2154.4013,0.005075
2156.2649,0.006613
2158.1286,0.005757
2159.9923,0.004381
2161.8559,0.006563
2163.7196,0.009142
2165.5833,0.009172
2167.4470,0.008418
2169.3106,0.007693
2171.1743,0.007795
2173.0380,0.008189
2174.9016,0.008364
2176.7653,0.009018
2178.6290,0.009027
2180.4926,0.008479
2182.3563,0.008221
2184.2200,0.009183
2186.0836,0.011156
2187.9473,0.012539
2189.8110,0.012325
2191.6746,0.011223
2193.5383,0.009994
2195.4020,0.010646
2197.2657,0.012462
2199.1293,0.012874
2200.9930,0.012169
2202.8567,0.011491
2204.7203,0.011429
2206.5840,0.012230
2208.4477,0.012212
2210.3113,0.011365
2212.1750,0.010990
2214.0387,0.011225
2215.9023,0.012044
2217.7660,0.012482
2219.6297,0.012770
2221.4934,0.012866
2223.3570,0.012576
2225.2207,0.012869
2227.0844,0.013697
2228.9480,0.013765
2230.8117,0.013826
2232.6754,0.014085
2234.5390,0.013946
2236.4027,0.014183
2238.2664,0.013819
2240.1300,0.013364
2241.9937,0.014214
2243.8574,0.014382
2245.7210,0.013918
2247.5847,0.014125
2249.4484,0.013910
2251.3121,0.014267
2253.1757,0.014673
2255.0394,0.014909
2256.9031,0.014936
2258.7667,0.014757
2260.6304,0.015036
2262.4941,0.015033
2264.3577,0.015010
2266.2214,0.015525
2268.0851,0.015978
2269.9487,0.016055
2271.8124,0.016010
2273.6761,0.016256
2275.5397,0.016884
2277.4034,0.017363
2279.2671,0.017263
2281.1308,0.017097
2282.9944,0.017242
2284.8581,0.017704
2286.7218,0.017835
2288.5854,0.017726
2290.4491,0.017889
2292.3128,0.018153
2294.1764,0.017916
2296.0401,0.017549
2297.9038,0.017583
2299.7674,0.017816
2301.6311,0.017920
2303.4948,0.017997
2305.3585,0.018220
2307.2221,0.018435
2309.0858,0.018302
2310.9495,0.018121
2312.8131,0.017998
2314.6768,0.018047
2316.5405,0.018042
2318.4041,0.017922
2320.2678,0.017965
2322.1315,0.018210
2323.9951,0.018704
2325.8588,0.018539
2327.7225,0.017863
2329.5861,0.017740
2331.4498,0.017636
2333.3135,0.017533
2335.1772,0.017619
2337.0408,0.017523
2338.9045,0.017473
2340.7682,0.017721
2342.6318,0.018015
2344.4955,0.018175
2346.3592,0.018187
2348.2228,0.017897
2350.0865,0.017315
2351.9502,0.016913
2353.8138,0.017130
2355.6775,0.017259
2357.5412,0.016861
2359.4049,0.016754
2361.2685,0.017066
2363.1322,0.017356
2364.9959,0.017892
2366.8595,0.018161
2368.7232,0.018105
2370.5869,0.018056
2372.4505,0.017955
2374.3142,0.018014
2376.1779,0.018135
2378.0415,0.018297
2379.9052,0.018552
2381.7689,0.018479
2383.6325,0.018177
2385.4962,0.018344
2387.3599,0.018472
2389.2236,0.018233
2391.0872,0.018154
2392.9509,0.018127
2394.8146,0.018272
2396.6782,0.018494
2398.5419,0.018242
2400.4056,0.017909
2402.2692,0.018190
2404.1329,0.018570
2405.9966,0.018724
2407.8602,0.018622
2409.7239,0.018474
2411.5876,0.018616
2413.4512,0.018773
2415.3149,0.018765
2417.1786,0.018686
2419.0423,0.018533
2420.9059,0.018869
2422.7696,0.019374
2424.6333,0.019405
2426.4969,0.019189
2428.3606,0.019107
2430.2243,0.019187
2432.0879,0.019280
2433.9516,0.019375
2435.8153,0.019266
2437.6789,0.018991
2439.5426,0.018988
2441.4063,0.019030
2443.2700,0.019059
2445.1336,0.019186
2446.9973,0.019302
2448.8610,0.019358
2450.7246,0.019498
2452.5883,0.019540
2454.4520,0.019438
2456.3156,0.019336
2458.1793,0.019473
2460.0430,0.019391
2461.9066,0.019259
2463.7703,0.019019
2465.6340,0.019177
2467.4976,0.019525
2469.3613,0.019410
2471.2250,0.018991
2473.0887,0.018916
2474.9523,0.019126
2476.8160,0.019184
2478.6797,0.019167
2480.5433,0.019484
2482.4070,0.019493
2484.2707,0.019489
2486.1343,0.019782
2487.9980,0.019816
2489.8617,0.020064
2491.7253,0.020666
2493.5890,0.020502
2495.4527,0.020144
2497.3164,0.020230
2499.1800,0.020413
2501.0437,0.020459
2502.9074,0.020384
2504.7710,0.020675
2506.6347,0.021108
2508.4984,0.020893
2510.3620,0.020441
2512.2257,0.020405
2514.0894,0.020721
2515.9530,0.020881
2517.8167,0.020793
2519.6804,0.020936
2521.5440,0.021021
2523.4077,0.020436
2525.2714,0.020390
2527.1351,0.020750
