Wavenumber,Intensity
650.4205,0.203202
652.2841,0.198770
654.1478,0.197727
656.0115,0.195254
657.8751,0.192119
659.7388,0.188682
661.6025,0.186678
663.4661,0.184248
665.3298,0.180273
667.1935,0.177757
669.0571,0.181173
670.9208,0.179807
672.7845,0.178899
674.6481,0.177650
676.5118,0.178003
678.3755,0.177878
680.2392,0.178779
682.1028,0.179086
683.9665,0.178916
685.8302,0.179139
687.6938,0.179863
689.5575,0.179470
691.4212,0.179684
693.2848,0.179815
695.1485,0.180927
697.0122,0.182310
698.8758,0.183487
700.7395,0.183676
702.6032,0.184111
704.4669,0.183046
706.3305,0.179397
708.1942,0.173383
710.0579,0.167483
711.9215,0.160511
713.7852,0.153970
715.6489,0.148240
717.5125,0.142082
719.3762,0.136463
721.2399,0.132434
723.1035,0.128243
724.9672,0.124689
726.8309,0.121207
728.6945,0.117953
730.5582,0.115061
732.4219,0.112332
734.2856,0.109560
736.1492,0.107477
738.0129,0.106455
739.8766,0.107117
741.7402,0.108932
743.6039,0.111068
745.4676,0.112648
747.3312,0.113800
749.1949,0.114576
751.0586,0.115183
752.9222,0.115464
754.7859,0.115717
756.6496,0.115445
758.5132,0.114479
760.3769,0.113718
762.2406,0.112973
764.1043,0.111663
765.9679,0.110352
767.8316,0.108982
769.6953,0.107766
771.5589,0.106451
773.4226,0.105074
775.2863,0.103975
777.1499,0.103634
779.0136,0.103748
780.8773,0.103976
782.7409,0.104017
784.6046,0.104514
786.4683,0.105268
788.3320,0.106108
790.1956,0.107189
792.0593,0.108179
793.9230,0.108806
795.7866,0.109281
797.6503,0.109487
799.5140,0.110111
801.3776,0.110634
803.2413,0.110577
805.1050,0.110079
806.9686,0.109238
808.8323,0.107981
810.6960,0.106870
812.5596,0.105123
814.4233,0.103205
816.2870,0.101577
818.1507,0.099900
820.0143,0.098483
821.8780,0.097862
823.7417,0.097918
825.6053,0.099044
827.4690,0.101138
829.3327,0.102954
831.1963,0.100389
833.0600,0.093366
834.9237,0.087426
836.7873,0.084936
838.6510,0.084477
840.5147,0.084794
842.3784,0.084993
844.2420,0.084987
846.1057,0.084881
847.9694,0.084643
849.8330,0.083978
851.6967,0.083541
853.5604,0.083262
855.4240,0.082819
857.2877,0.082334
859.1514,0.081818
861.0150,0.081298
862.8787,0.080611
864.7424,0.079642
866.6060,0.078888
868.4697,0.078351
870.3334,0.077657
872.1971,0.077064
874.0607,0.077008
875.9244,0.077144
877.7881,0.077522
879.6517,0.078432
881.5154,0.079717
883.3791,0.081078
885.2427,0.082441
887.1064,0.084027
888.9701,0.085629
890.8337,0.087150
892.6974,0.088731
894.5611,0.090081
896.4247,0.091543
898.2884,0.093197
900.1521,0.094952
902.0158,0.097047
903.8794,0.099928
905.7431,0.103521
907.6068,0.107798
909.4704,0.112518
911.3341,0.117811
913.1978,0.123614
915.0614,0.126690
916.9251,0.121787
918.7888,0.111730
920.6524,0.104278
922.5161,0.101397
924.3798,0.100741
926.2435,0.100968
928.1071,0.101276
929.9708,0.101344
931.8345,0.101268
933.6981,0.101198
935.5618,0.101146
937.4255,0.100980
939.2891,0.100638
941.1528,0.100312
943.0165,0.100239
944.8801,0.100638
946.7438,0.101477
948.6075,0.102966
950.4711,0.105182
952.3348,0.108180
954.1985,0.111507
956.0622,0.114908
957.9258,0.118628
959.7895,0.122685
961.6532,0.126902
963.5168,0.131441
965.3805,0.136396
967.2442,0.142056
969.1078,0.148432
970.9715,0.155336
972.8352,0.162935
974.6988,0.172473
976.5625,0.185023
978.4262,0.202279
980.2899,0.223004
982.1535,0.231742
984.0172,0.213923
985.8809,0.190319
987.7445,0.180775
989.6082,0.180407
991.4719,0.181536
993.3355,0.182631
995.1992,0.183188
997.0629,0.183225
998.9265,0.183018
1000.7902,0.182772
1002.6539,0.182656
1004.5175,0.182899
1006.3812,0.183576
1008.2449,0.184411
1010.1086,0.184933
1011.9722,0.185177
1013.8359,0.185043
1015.6996,0.184459
1017.5632,0.183538
1019.4269,0.182359
1021.2906,0.180659
1023.1542,0.178598
1025.0179,0.176238
1026.8816,0.173694
1028.7452,0.171173
1030.6089,0.169051
1032.4726,0.167143
1034.3362,0.165467
1036.1999,0.164191
1038.0636,0.163041
1039.9273,0.161909
1041.7909,0.161003
1043.6546,0.160175
1045.5183,0.159045
1047.3819,0.156917
1049.2456,0.152837
1051.1093,0.145863
1052.9729,0.137168
1054.8366,0.129155
1056.7003,0.123188
1058.5639,0.119035
1060.4276,0.116283
1062.2913,0.114415
1064.1550,0.113526
1066.0186,0.114146
1067.8823,0.116616
1069.7460,0.120661
1071.6096,0.125312
1073.4733,0.129460
1075.3370,0.132298
1077.2006,0.133556
1079.0643,0.133421
1080.9280,0.132048
1082.7916,0.130004
1084.6553,0.127912
1086.5190,0.126295
1088.3826,0.125457
1090.2463,0.125630
1092.1100,0.126906
1093.9737,0.129343
1095.8373,0.132681
1097.7010,0.136681
1099.5647,0.141091
1101.4283,0.145332
1103.2920,0.148683
1105.1557,0.150514
1107.0193,0.149807
1108.8830,0.145861
1110.7467,0.138831
1112.6103,0.130040
1114.4740,0.121092
1116.3377,0.113125
1118.2014,0.106607
1120.0650,0.101649
1121.9287,0.098150
1123.7924,0.095805
1125.6560,0.093983
1127.5197,0.092370
1129.3834,0.090876
1131.2470,0.089752
1133.1107,0.089170
1134.9744,0.089180
1136.8380,0.089879
1138.7017,0.091170
1140.5654,0.092766
1142.4290,0.094405
1144.2927,0.095704
1146.1564,0.096365
1148.0201,0.096345
1149.8837,0.095712
1151.7474,0.094403
1153.6111,0.092436
1155.4747,0.089945
1157.3384,0.087061
1159.2021,0.083952
1161.0657,0.080705
1162.9294,0.077594
1164.7931,0.075050
1166.6567,0.073341
1168.5204,0.072420
1170.3841,0.071999
1172.2477,0.071480
1174.1114,0.069764
1175.9751,0.066427
1177.8388,0.062665
1179.7024,0.059905
1181.5661,0.058362
1183.4298,0.057871
1185.2934,0.058169
1187.1571,0.058741
1189.0208,0.059286
1190.8844,0.059867
1192.7481,0.060421
1194.6118,0.060936
1196.4754,0.061553
1198.3391,0.062139
1200.2028,0.062593
1202.0665,0.063039
1203.9301,0.063435
1205.7938,0.063661
1207.6575,0.063880
1209.5211,0.064104
1211.3848,0.064401
1213.2485,0.064806
1215.1121,0.065210
1216.9758,0.065802
1218.8395,0.066545
1220.7031,0.067331
1222.5668,0.068143
1224.4305,0.068960
1226.2941,0.069646
1228.1578,0.070323
1230.0215,0.071009
1231.8852,0.071652
1233.7488,0.072245
1235.6125,0.072773
1237.4762,0.073177
1239.3398,0.073549
1241.2035,0.074034
1243.0672,0.074527
1244.9308,0.074972
1246.7945,0.075378
1248.6582,0.075866
1250.5218,0.076464
1252.3855,0.076964
1254.2492,0.077450
1256.1129,0.077956
1257.9765,0.078497
1259.8402,0.079244
1261.7039,0.080075
1263.5675,0.080796
1265.4312,0.081413
1267.2949,0.081830
1269.1585,0.081866
1271.0222,0.081716
1272.8859,0.081850
1274.7495,0.082279
1276.6132,0.082790
1278.4769,0.083517
1280.3405,0.084640
1282.2042,0.085937
1284.0679,0.087418
1285.9316,0.089202
1287.7952,0.091279
1289.6589,0.093662
1291.5226,0.096295
1293.3862,0.099283
1295.2499,0.102886
1297.1136,0.107124
1298.9772,0.111902
1300.8409,0.117493
1302.7046,0.123293
1304.5682,0.126748
1306.4319,0.125109
1308.2956,0.116534
1310.1592,0.102498
1312.0229,0.088813
1313.8866,0.080164
1315.7503,0.077175
1317.6139,0.077796
1319.4776,0.079967
1321.3413,0.082267
1323.2049,0.084387
1325.0686,0.086621
1326.9323,0.088858
1328.7959,0.091005
1330.6596,0.092902
1332.5233,0.094173
1334.3869,0.094652
1336.2506,0.094951
1338.1143,0.096058
1339.9780,0.098036
1341.8416,0.098620
1343.7053,0.098337
1345.5690,0.098721
1347.4326,0.099465
1349.2963,0.100459
1351.1600,0.101678
1353.0236,0.103067
1354.8873,0.104878
1356.7510,0.106371
1358.6146,0.107384
1360.4783,0.108993
1362.3420,0.112568
1364.2056,0.115696
1366.0693,0.116427
1367.9330,0.117969
1369.7967,0.120274
1371.6603,0.121667
1373.5240,0.124475
1375.3877,0.128272
1377.2513,0.130131
1379.1150,0.132452
1380.9787,0.136011
1382.8423,0.139380
1384.7060,0.143086
1386.5697,0.148694
1388.4333,0.155537
1390.2970,0.158145
1392.1607,0.158560
1394.0244,0.158545
1395.8880,0.155834
1397.7517,0.150234
1399.6154,0.143940
1401.4790,0.137692
1403.3427,0.131911
1405.2064,0.123964
1407.0700,0.112482
1408.9337,0.100386
1410.7974,0.089311
1412.6610,0.081405
1414.5247,0.077291
1416.3884,0.076528
1418.2520,0.079892
1420.1157,0.086944
1421.9794,0.089140
1423.8431,0.087312
1425.7067,0.081622
1427.5704,0.074767
1429.4341,0.070323
1431.2977,0.068354
1433.1614,0.067252
1435.0251,0.067436
1436.8887,0.070682
1438.7524,0.072847
1440.6161,0.072394
1442.4797,0.072870
1444.3434,0.073441
1446.2071,0.073922
1448.0707,0.074678
1449.9344,0.073656
1451.7981,0.070855
1453.6618,0.068119
1455.5254,0.066908
1457.3891,0.071108
1459.2528,0.073291
1461.1164,0.070857
1462.9801,0.069500
1464.8438,0.069692
1466.7074,0.068895
1468.5711,0.066193
1470.4348,0.063977
1472.2984,0.064055
1474.1621,0.065303
1476.0258,0.064500
1477.8895,0.063564
1479.7531,0.062720
1481.6168,0.062479
1483.4805,0.062220
1485.3441,0.061429
1487.2078,0.061738
1489.0715,0.063878
1490.9351,0.065905
1492.7988,0.064955
1494.6625,0.063903
1496.5261,0.065549
1498.3898,0.068115
1500.2535,0.068202
1502.1171,0.067011
1503.9808,0.065504
1505.8445,0.066686
1507.7082,0.075222
1509.5718,0.075269
1511.4355,0.073407
1513.2992,0.073158
1515.1628,0.073319
1517.0265,0.074813
1518.8902,0.075734
1520.7538,0.076422
1522.6175,0.079446
1524.4812,0.079653
1526.3448,0.080430
1528.2085,0.081572
1530.0722,0.081002
1531.9359,0.081326
1533.7995,0.083803
1535.6632,0.084256
1537.5269,0.082676
1539.3905,0.085056
1541.2542,0.092546
1543.1179,0.093546
1544.9815,0.094196
1546.8452,0.094488
1548.7089,0.094582
1550.5725,0.096442
1552.4362,0.097519
1554.2999,0.097790
1556.1635,0.099029
1558.0272,0.103004
1559.8909,0.115825
1561.7546,0.112746
1563.6182,0.109931
1565.4819,0.110990
1567.3456,0.112906
1569.2092,0.115876
1571.0729,0.119304
1572.9366,0.119247
1574.8002,0.120979
1576.6639,0.127425
1578.5276,0.130072
1580.3912,0.129734
1582.2549,0.131298
1584.1186,0.133078
1585.9822,0.134347
1587.8459,0.135385
1589.7096,0.136088
1591.5733,0.136287
1593.4369,0.136035
1595.3006,0.135432
1597.1643,0.134404
1599.0279,0.133047
1600.8916,0.131782
1602.7553,0.130536
1604.6189,0.129134
1606.4826,0.127805
1608.3463,0.126843
1610.2099,0.125603
1612.0736,0.123385
1613.9373,0.120624
1615.8010,0.118291
1617.6646,0.114977
1619.5283,0.109972
1621.3920,0.105791
1623.2556,0.102091
1625.1193,0.097436
1626.9830,0.092373
1628.8466,0.086556
1630.7103,0.080226
1632.5740,0.074258
1634.4376,0.069192
1636.3013,0.065062
1638.1650,0.062058
1640.0286,0.059885
1641.8923,0.058517
1643.7560,0.057825
1645.6197,0.058626
1647.4833,0.061276
1649.3470,0.061617
1651.2107,0.061264
1653.0743,0.066286
1654.9380,0.072597
1656.8017,0.070068
1658.6653,0.069002
1660.5290,0.069001
1662.3927,0.069214
1664.2563,0.068902
1666.1200,0.067036
1667.9837,0.065636
1669.8474,0.065813
1671.7110,0.065973
1673.5747,0.065813
1675.4384,0.067671
1677.3020,0.070193
1679.1657,0.070656
1681.0294,0.072179
1682.8930,0.074934
1684.7567,0.080710
1686.6204,0.082270
1688.4840,0.079856
1690.3477,0.078319
1692.2114,0.075726
1694.0750,0.072687
1695.9387,0.069994
1697.8024,0.067951
1699.6661,0.065520
1701.5297,0.062130
1703.3934,0.057149
1705.2571,0.051955
1707.1207,0.046247
1708.9844,0.041565
1710.8481,0.037657
1712.7117,0.034395
1714.5754,0.032114
1716.4391,0.031303
1718.3027,0.031677
1720.1664,0.031243
1722.0301,0.029647
1723.8937,0.028429
1725.7574,0.027014
1727.6211,0.025315
1729.4848,0.023722
1731.3484,0.022551
1733.2121,0.021867
1735.0758,0.022561
1736.9394,0.022027
1738.8031,0.020848
1740.6668,0.021055
1742.5304,0.020889
1744.3941,0.020345
1746.2578,0.019821
1748.1214,0.019475
1749.9851,0.019929
1751.8488,0.020350
1753.7125,0.020014
1755.5761,0.019134
1757.4398,0.019096
1759.3035,0.019256
1761.1671,0.019116
1763.0308,0.019641
1764.8945,0.019250
1766.7581,0.018411
1768.6218,0.018301
1770.4855,0.018335
1772.3491,0.018741
1774.2128,0.019535
1776.0765,0.019011
1777.9401,0.018794
1779.8038,0.018661
1781.6675,0.018943
1783.5312,0.018965
1785.3948,0.018924
1787.2585,0.018978
1789.1222,0.018414
1790.9858,0.018207
1792.8495,0.019248
1794.7132,0.019441
1796.5768,0.018819
1798.4405,0.018701
1800.3042,0.018746
1802.1678,0.019109
1804.0315,0.019096
1805.8952,0.018812
1807.7589,0.018943
1809.6225,0.019062
1811.4862,0.018999
1813.3499,0.019165
1815.2135,0.018919
1817.0772,0.018634
1818.9409,0.018812
1820.8045,0.018943
1822.6682,0.018652
1824.5319,0.018332
1826.3955,0.018565
1828.2592,0.018527
1830.1229,0.018637
1831.9865,0.019037
1833.8502,0.018417
1835.7139,0.018332
1837.5776,0.018633
1839.4412,0.018440
1841.3049,0.017791
1843.1686,0.017656
1845.0322,0.018713
1846.8959,0.019540
1848.7596,0.019222
1850.6232,0.018816
1852.4869,0.018578
1854.3506,0.018756
1856.2142,0.018635
1858.0779,0.018690
1859.9416,0.018935
1861.8052,0.018853
1863.6689,0.018381
1865.5326,0.018164
1867.3963,0.018277
1869.2599,0.018894
1871.1236,0.019088
1872.9873,0.018668
1874.8509,0.018403
1876.7146,0.018356
1878.5783,0.018312
1880.4419,0.018484
1882.3056,0.018804
1884.1693,0.018920
1886.0329,0.018523
1887.8966,0.018413
1889.7603,0.018584
1891.6240,0.018646
1893.4876,0.018527
1895.3513,0.018583
1897.2150,0.018465
1899.0786,0.018589
1900.9423,0.018835
1902.8060,0.018690
1904.6696,0.018590
1906.5333,0.018817
1908.3970,0.018523
1910.2606,0.018131
1912.1243,0.018208
1913.9880,0.018231
1915.8516,0.017751
1917.7153,0.017447
1919.5790,0.017589
1921.4427,0.017700
1923.3063,0.017984
1925.1700,0.017827
1927.0337,0.017211
1928.8973,0.017450
1930.7610,0.017899
1932.6247,0.017700
1934.4883,0.017121
1936.3520,0.016861
1938.2157,0.016552
1940.0793,0.016538
1941.9430,0.016522
1943.8067,0.015989
1945.6704,0.015223
1947.5340,0.015486
1949.3977,0.015718
1951.2614,0.015990
1953.1250,0.016166
1954.9887,0.015177
1956.8524,0.013628
1958.7160,0.012272
1960.5797,0.011672
1962.4434,0.012717
1964.3070,0.011808
1966.1707,0.009223
1968.0344,0.008466
1969.8980,0.008893
1971.7617,0.009033
1973.6254,0.009661
1975.4891,0.009891
1977.3527,0.009733
1979.2164,0.010156
1981.0801,0.011248
1982.9437,0.012028
1984.8074,0.011899
1986.6711,0.011446
1988.5347,0.012092
1990.3984,0.012696
1992.2621,0.011988
1994.1257,0.012064
1995.9894,0.013067
1997.8531,0.012680
1999.7167,0.012368
2001.5804,0.012712
2003.4441,0.011777
2005.3078,0.010722
2007.1714,0.011178
2009.0351,0.011028
2010.8988,0.010826
2012.7624,0.011368
2014.6261,0.011337
2016.4898,0.010537
2018.3534,0.009704
2020.2171,0.009385
2022.0808,0.010408
2023.9444,0.010872
2025.8081,0.008927
2027.6718,0.007479
2029.5355,0.009017
2031.3991,0.009946
2033.2628,0.009985
2035.1265,0.010974
2036.9901,0.012506
2038.8538,0.013647
2040.7175,0.013420
2042.5811,0.012959
2044.4448,0.013379
2046.3085,0.013554
2048.1721,0.014385
2050.0358,0.016120
2051.8995,0.016755
2053.7631,0.016117
2055.6268,0.016447
2057.4905,0.017602
2059.3542,0.018120
2061.2178,0.017821
2063.0815,0.017301
2064.9452,0.017096
2066.8088,0.018167
2068.6725,0.018850
2070.5362,0.018886
2072.3998,0.019380
2074.2635,0.019917
2076.1272,0.020145
2077.9908,0.020035
2079.8545,0.019559
2081.7182,0.019495
2083.5819,0.019607
2085.4455,0.020012
2087.3092,0.020598
2089.1729,0.020785
2091.0365,0.020497
2092.9002,0.020130
2094.7639,0.019842
2096.6275,0.020036
2098.4912,0.020551
2100.3549,0.021023
2102.2185,0.021332
2104.0822,0.020964
2105.9459,0.020686
2107.8095,0.021339
2109.6732,0.021489
2111.5369,0.020900
2113.4006,0.020575
2115.2642,0.020879
2117.1279,0.021286
2118.9916,0.021399
2120.8552,0.021071
2122.7189,0.020856
2124.5826,0.020798
2126.4462,0.021044
2128.3099,0.020744
2130.1736,0.020002
2132.0372,0.019353
2133.9009,0.018565
2135.7646,0.017649
2137.6282,0.017556
2139.4919,0.017803
2141.3556,0.017343
2143.2193,0.017065
2145.0829,0.017442
2146.9466,0.016295
2148.8103,0.014046
2150.6739,0.012949
2152.5376,0.013583
2154.4013,0.012898
2156.2649,0.010095
2158.1286,0.009248
2159.9923,0.010930
2161.8559,0.011092
2163.7196,0.010277
2165.5833,0.010430
2167.4470,0.011927
2169.3106,0.012680
2171.1743,0.012831
2173.0380,0.013871
2174.9016,0.014525
2176.7653,0.014974
2178.6290,0.015122
2180.4926,0.014270
2182.3563,0.014715
2184.2200,0.015936
2186.0836,0.016344
2187.9473,0.016847
2189.8110,0.017595
2191.6746,0.017332
2193.5383,0.017337
2195.4020,0.017491
2197.2657,0.016469
2199.1293,0.015565
2200.9930,0.016046
2202.8567,0.017597
2204.7203,0.018844
2206.5840,0.019851
2208.4477,0.020469
2210.3113,0.019602
2212.1750,0.019519
2214.0387,0.020448
2215.9023,0.020063
2217.7660,0.019092
2219.6297,0.019181
2221.4934,0.020045
2223.3570,0.019948
2225.2207,0.019118
2227.0844,0.019934
2228.9480,0.021295
2230.8117,0.021871
2232.6754,0.022157
2234.5390,0.022522
2236.4027,0.022252
2238.2664,0.022121
2240.1300,0.022393
2241.9937,0.022655
2243.8574,0.022689
2245.7210,0.022886
2247.5847,0.022954
2249.4484,0.022917
2251.3121,0.023202
2253.1757,0.023237
2255.0394,0.022813
2256.9031,0.023145
2258.7667,0.023528
2260.6304,0.023636
2262.4941,0.024022
2264.3577,0.024525
2266.2214,0.024778
2268.0851,0.025287
2269.9487,0.025613
2271.8124,0.025706
2273.6761,0.025982
2275.5397,0.026696
2277.4034,0.026859
2279.2671,0.026957
2281.1308,0.027576
2282.9944,0.027967
2284.8581,0.027914
2286.7218,0.027905
2288.5854,0.027855
2290.4491,0.027707
2292.3128,0.027759
2294.1764,0.028293
2296.0401,0.028547
2297.9038,0.028320
2299.7674,0.028015
2301.6311,0.028109
2303.4948,0.028365
2305.3585,0.028467
2307.2221,0.028577
2309.0858,0.028503
2310.9495,0.028623
2312.8131,0.028961
2314.6768,0.028633
2316.5405,0.028464
2318.4041,0.028849
2320.2678,0.029131
2322.1315,0.029255
2323.9951,0.029360
2325.8588,0.029208
2327.7225,0.028638
2329.5861,0.028098
2331.4498,0.027813
2333.3135,0.027868
2335.1772,0.028293
2337.0408,0.028425
2338.9045,0.028550
2340.7682,0.028819
2342.6318,0.029039
2344.4955,0.029179
2346.3592,0.028925
2348.2228,0.028292
2350.0865,0.027585
2351.9502,0.027320
2353.8138,0.027642
2355.6775,0.027962
2357.5412,0.028174
2359.4049,0.028139
2361.2685,0.028024
2363.1322,0.027858
2364.9959,0.028347
2366.8595,0.028685
2368.7232,0.028724
2370.5869,0.029026
2372.4505,0.029357
2374.3142,0.029829
2376.1779,0.029770
2378.0415,0.029511
2379.9052,0.029591
2381.7689,0.029484
2383.6325,0.029193
2385.4962,0.029187
2387.3599,0.029338
2389.2236,0.029121
2391.0872,0.029035
2392.9509,0.029184
2394.8146,0.029362
2396.6782,0.029326
2398.5419,0.028997
2400.4056,0.028992
2402.2692,0.029311
2404.1329,0.029433
2405.9966,0.029627
2407.8602,0.029730
2409.7239,0.029902
2411.5876,0.029801
2413.4512,0.029419
2415.3149,0.029458
2417.1786,0.030176
2419.0423,0.030477
2420.9059,0.030261
2422.7696,0.030150
2424.6333,0.030259
2426.4969,0.030271
2428.3606,0.030536
2430.2243,0.030550
2432.0879,0.030726
2433.9516,0.030774
2435.8153,0.030651
2437.6789,0.030781
2439.5426,0.031057
2441.4063,0.031015
2443.2700,0.031031
2445.1336,0.031023
2446.9973,0.030870
2448.8610,0.030843
2450.7246,0.030888
2452.5883,0.030884
2454.4520,0.031176
2456.3156,0.031316
2458.1793,0.031137
2460.0430,0.031106
2461.9066,0.031053
2463.7703,0.031118
2465.6340,0.031085
2467.4976,0.030906
2469.3613,0.030868
2471.2250,0.030737
2473.0887,0.030948
2474.9523,0.031322
2476.8160,0.031086
2478.6797,0.030745
2480.5433,0.031037
2482.4070,0.031271
2484.2707,0.031413
2486.1343,0.031497
2487.9980,0.031604
2489.8617,0.031871
2491.7253,0.031632
2493.5890,0.031464
2495.4527,0.032076
2497.3164,0.032570
2499.1800,0.032404
2501.0437,0.032164
2502.9074,0.032319
2504.7710,0.032324
2506.6347,0.032624
2508.4984,0.032957
2510.3620,0.032617
2512.2257,0.032572
2514.0894,0.032883
2515.9530,0.032922
2517.8167,0.032890
2519.6804,0.032963
2521.5440,0.033009
2523.4077,0.033185
2525.2714,0.033699
2527.1351,0.033744
