Wavenumber,Intensity
650.4205,0.207215
652.2841,0.201504
654.1478,0.194198
656.0115,0.191895
657.8751,0.190824
659.7388,0.188400
661.6025,0.187151
663.4661,0.184325
665.3298,0.180794
667.1935,0.178316
669.0571,0.179884
670.9208,0.179917
672.7845,0.179048
674.6481,0.178321
676.5118,0.179586
678.3755,0.178347
680.2392,0.177601
682.1028,0.177951
683.9665,0.179763
685.8302,0.180347
687.6938,0.179750
689.5575,0.179899
691.4212,0.181642
693.2848,0.182190
695.1485,0.182814
697.0122,0.183182
698.8758,0.185192
700.7395,0.185375
702.6032,0.184492
704.4669,0.182633
706.3305,0.178878
708.1942,0.171748
710.0579,0.163731
711.9215,0.155933
713.7852,0.148538
715.6489,0.141182
717.5125,0.135193
719.3762,0.130341
721.2399,0.126272
723.1035,0.121854
724.9672,0.117594
726.8309,0.113181
728.6945,0.109253
730.5582,0.105629
732.4219,0.102861
734.2856,0.100641
736.1492,0.098109
738.0129,0.096296
739.8766,0.097102
741.7402,0.099820
743.6039,0.101917
745.4676,0.103305
747.3312,0.103848
749.1949,0.103834
751.0586,0.103557
752.9222,0.103162
754.7859,0.102842
756.6496,0.101822
758.5132,0.101104
760.3769,0.100964
762.2406,0.100507
764.1043,0.099875
765.9679,0.098950
767.8316,0.097918
769.6953,0.097249
771.5589,0.096723
773.4226,0.096358
775.2863,0.095693
777.1499,0.095865
779.0136,0.096393
780.8773,0.096940
782.7409,0.097216
784.6046,0.097890
786.4683,0.099060
788.3320,0.100714
790.1956,0.102287
792.0593,0.103586
793.9230,0.104644
795.7866,0.105891
797.6503,0.106846
799.5140,0.107640
801.3776,0.108361
803.2413,0.108719
805.1050,0.108036
806.9686,0.106796
808.8323,0.105241
810.6960,0.103371
812.5596,0.101082
814.4233,0.098607
816.2870,0.096153
818.1507,0.093978
820.0143,0.092131
821.8780,0.091060
823.7417,0.090666
825.6053,0.091349
827.4690,0.093623
829.3327,0.094725
831.1963,0.090379
833.0600,0.081412
834.9237,0.073704
836.7873,0.070169
838.6510,0.069301
840.5147,0.069280
842.3784,0.069060
844.2420,0.068877
846.1057,0.068894
847.9694,0.068826
849.8330,0.068254
851.6967,0.067880
853.5604,0.067846
855.4240,0.067530
857.2877,0.067268
859.1514,0.066950
861.0150,0.066332
862.8787,0.065901
864.7424,0.065454
866.6060,0.064781
868.4697,0.064403
870.3334,0.064174
872.1971,0.064003
874.0607,0.063996
875.9244,0.064007
877.7881,0.064355
879.6517,0.064833
881.5154,0.065655
883.3791,0.066451
885.2427,0.067194
887.1064,0.068289
888.9701,0.069514
890.8337,0.070649
892.6974,0.071685
894.5611,0.072622
896.4247,0.073866
898.2884,0.075255
900.1521,0.076876
902.0158,0.078989
903.8794,0.081747
905.7431,0.085216
907.6068,0.089357
909.4704,0.094040
911.3341,0.099836
913.1978,0.106565
915.0614,0.109426
916.9251,0.102605
918.7888,0.089903
920.6524,0.080492
922.5161,0.076773
924.3798,0.075844
926.2435,0.075744
928.1071,0.076065
929.9708,0.076399
931.8345,0.076651
933.6981,0.076924
935.5618,0.077092
937.4255,0.077244
939.2891,0.077295
941.1528,0.077360
943.0165,0.077430
944.8801,0.077823
946.7438,0.078509
948.6075,0.079571
950.4711,0.080975
952.3348,0.082722
954.1985,0.084835
956.0622,0.087135
957.9258,0.089446
959.7895,0.091756
961.6532,0.094244
963.5168,0.097079
965.3805,0.100492
967.2442,0.104505
969.1078,0.108957
970.9715,0.113688
972.8352,0.119133
974.6988,0.126601
976.5625,0.137740
978.4262,0.155015
980.2899,0.177006
982.1535,0.185100
984.0172,0.162252
985.8809,0.133489
987.7445,0.121326
989.6082,0.119925
991.4719,0.120899
993.3355,0.121963
995.1992,0.122689
997.0629,0.123193
998.9265,0.123514
1000.7902,0.123795
1002.6539,0.124166
1004.5175,0.124617
1006.3812,0.125337
1008.2449,0.126203
1010.1086,0.127152
1011.9722,0.128217
1013.8359,0.128958
1015.6996,0.129343
1017.5632,0.129590
1019.4269,0.129632
1021.2906,0.129414
1023.1542,0.129082
1025.0179,0.128584
1026.8816,0.127947
1028.7452,0.127356
1030.6089,0.126890
1032.4726,0.126475
1034.3362,0.126439
1036.1999,0.126897
1038.0636,0.127552
1039.9273,0.128290
1041.7909,0.129307
1043.6546,0.130789
1045.5183,0.132567
1047.3819,0.133531
1049.2456,0.131769
1051.1093,0.125822
1052.9729,0.116980
1054.8366,0.108544
1056.7003,0.102624
1058.5639,0.099152
1060.4276,0.097279
1062.2913,0.096263
1064.1550,0.095959
1066.0186,0.096750
1067.8823,0.098698
1069.7460,0.101514
1071.6096,0.104969
1073.4733,0.108303
1075.3370,0.111003
1077.2006,0.112790
1079.0643,0.113695
1080.9280,0.114032
1082.7916,0.114001
1084.6553,0.114006
1086.5190,0.114361
1088.3826,0.115347
1090.2463,0.117136
1092.1100,0.119699
1093.9737,0.123251
1095.8373,0.127776
1097.7010,0.132988
1099.5647,0.138526
1101.4283,0.144084
1103.2920,0.149039
1105.1557,0.152401
1107.0193,0.152660
1108.8830,0.148650
1110.7467,0.140504
1112.6103,0.129839
1114.4740,0.118762
1116.3377,0.108838
1118.2014,0.100654
1120.0650,0.094456
1121.9287,0.090261
1123.7924,0.087574
1125.6560,0.085422
1127.5197,0.083352
1129.3834,0.081487
1131.2470,0.079950
1133.1107,0.078851
1134.9744,0.078300
1136.8380,0.078336
1138.7017,0.078900
1140.5654,0.079851
1142.4290,0.080874
1144.2927,0.081731
1146.1564,0.082337
1148.0201,0.082558
1149.8837,0.082454
1151.7474,0.082032
1153.6111,0.081264
1155.4747,0.080313
1157.3384,0.079175
1159.2021,0.077947
1161.0657,0.076738
1162.9294,0.075698
1164.7931,0.075292
1166.6567,0.075716
1168.5204,0.076991
1170.3841,0.078691
1172.2477,0.079592
1174.1114,0.078355
1175.9751,0.074535
1177.8388,0.069638
1179.7024,0.065714
1181.5661,0.063546
1183.4298,0.062745
1185.2934,0.062635
1187.1571,0.062912
1189.0208,0.063391
1190.8844,0.063760
1192.7481,0.064020
1194.6118,0.064336
1196.4754,0.064707
1198.3391,0.065224
1200.2028,0.065717
1202.0665,0.066039
1203.9301,0.066341
1205.7938,0.066695
1207.6575,0.067027
1209.5211,0.067305
1211.3848,0.067603
1213.2485,0.068099
1215.1121,0.068619
1216.9758,0.069122
1218.8395,0.069731
1220.7031,0.070464
1222.5668,0.071141
1224.4305,0.071731
1226.2941,0.072325
1228.1578,0.072971
1230.0215,0.073508
1231.8852,0.074032
1233.7488,0.074619
1235.6125,0.075196
1237.4762,0.075736
1239.3398,0.076240
1241.2035,0.076728
1243.0672,0.077299
1244.9308,0.077919
1246.7945,0.078481
1248.6582,0.079075
1250.5218,0.079680
1252.3855,0.080301
1254.2492,0.080968
1256.1129,0.081622
1257.9765,0.082328
1259.8402,0.083202
1261.7039,0.084140
1263.5675,0.084978
1265.4312,0.085799
1267.2949,0.086319
1269.1585,0.086421
1271.0222,0.086396
1272.8859,0.086519
1274.7495,0.086845
1276.6132,0.087408
1278.4769,0.088345
1280.3405,0.089661
1282.2042,0.091084
1284.0679,0.092761
1285.9316,0.094722
1287.7952,0.097158
1289.6589,0.099930
1291.5226,0.102739
1293.3862,0.105950
1295.2499,0.109837
1297.1136,0.114462
1298.9772,0.119916
1300.8409,0.126285
1302.7046,0.133021
1304.5682,0.137611
1306.4319,0.136619
1308.2956,0.127151
1310.1592,0.110133
1312.0229,0.092680
1313.8866,0.081499
1315.7503,0.077601
1317.6139,0.077990
1319.4776,0.080255
1321.3413,0.082682
1323.2049,0.085001
1325.0686,0.087653
1326.9323,0.090339
1328.7959,0.092885
1330.6596,0.095120
1332.5233,0.096652
1334.3869,0.097314
1336.2506,0.097890
1338.1143,0.099534
1339.9780,0.102138
1341.8416,0.102701
1343.7053,0.102149
1345.5690,0.102546
1347.4326,0.103639
1349.2963,0.104954
1351.1600,0.106309
1353.0236,0.107791
1354.8873,0.110000
1356.7510,0.112047
1358.6146,0.113468
1360.4783,0.115665
1362.3420,0.120544
1364.2056,0.124531
1366.0693,0.125502
1367.9330,0.127825
1369.7967,0.131080
1371.6603,0.133019
1373.5240,0.136912
1375.3877,0.141929
1377.2513,0.144476
1379.1150,0.147741
1380.9787,0.152332
1382.8423,0.156695
1384.7060,0.161480
1386.5697,0.168701
1388.4333,0.177177
1390.2970,0.180220
1392.1607,0.181065
1394.0244,0.181551
1395.8880,0.178391
1397.7517,0.171575
1399.6154,0.163409
1401.4790,0.154572
1403.3427,0.145954
1405.2064,0.133830
1407.0700,0.117934
1408.9337,0.102770
1410.7974,0.089490
1412.6610,0.080453
1414.5247,0.076156
1416.3884,0.075888
1418.2520,0.080406
1420.1157,0.089153
1421.9794,0.092093
1423.8431,0.089929
1425.7067,0.082450
1427.5704,0.074054
1429.4341,0.068909
1431.2977,0.066922
1433.1614,0.066120
1435.0251,0.066907
1436.8887,0.071111
1438.7524,0.073550
1440.6161,0.073207
1442.4797,0.074106
1444.3434,0.075056
1446.2071,0.075937
1448.0707,0.076808
1449.9344,0.075376
1451.7981,0.072087
1453.6618,0.068863
1455.5254,0.067942
1457.3891,0.073505
1459.2528,0.075672
1461.1164,0.072802
1462.9801,0.071690
1464.8438,0.072658
1466.7074,0.072128
1468.5711,0.069291
1470.4348,0.067327
1472.2984,0.068351
1474.1621,0.070183
1476.0258,0.069435
1477.8895,0.068561
1479.7531,0.067870
1481.6168,0.067918
1483.4805,0.067815
1485.3441,0.067099
1487.2078,0.067685
1489.0715,0.070352
1490.9351,0.072837
1492.7988,0.071625
1494.6625,0.070572
1496.5261,0.072795
1498.3898,0.075796
1500.2535,0.075651
1502.1171,0.074260
1503.9808,0.072956
1505.8445,0.075285
1507.7082,0.085340
1509.5718,0.084376
1511.4355,0.082093
1513.2992,0.081711
1515.1628,0.081993
1517.0265,0.083874
1518.8902,0.085033
1520.7538,0.086464
1522.6175,0.090151
1524.4812,0.090207
1526.3448,0.091023
1528.2085,0.092141
1530.0722,0.091426
1531.9359,0.092078
1533.7995,0.095171
1535.6632,0.095063
1537.5269,0.093169
1539.3905,0.096834
1541.2542,0.106632
1543.1179,0.107103
1544.9815,0.107607
1546.8452,0.107758
1548.7089,0.108050
1550.5725,0.110429
1552.4362,0.111632
1554.2999,0.112012
1556.1635,0.113773
1558.0272,0.120067
1559.8909,0.135672
1561.7546,0.129919
1563.6182,0.126781
1565.4819,0.128318
1567.3456,0.130598
1569.2092,0.134790
1571.0729,0.139002
1572.9366,0.138506
1574.8002,0.140927
1576.6639,0.149177
1578.5276,0.151880
1580.3912,0.151347
1582.2549,0.153362
1584.1186,0.155573
1585.9822,0.157095
1587.8459,0.158327
1589.7096,0.159115
1591.5733,0.159175
1593.4369,0.158739
1595.3006,0.157994
1597.1643,0.156667
1599.0279,0.154678
1600.8916,0.152750
1602.7553,0.150941
1604.6189,0.149229
1606.4826,0.147535
1608.3463,0.146176
1610.2099,0.144365
1612.0736,0.141508
1613.9373,0.138234
1615.8010,0.135666
1617.6646,0.130803
1619.5283,0.124028
1621.3920,0.118954
1623.2556,0.113963
1625.1193,0.107009
1626.9830,0.100238
1628.8466,0.092445
1630.7103,0.084289
1632.5740,0.077086
1634.4376,0.071343
1636.3013,0.066002
1638.1650,0.062323
1640.0286,0.060112
1641.8923,0.058834
1643.7560,0.058547
1645.6197,0.060052
1647.4833,0.063605
1649.3470,0.064728
1651.2107,0.064828
1653.0743,0.070715
1654.9380,0.077330
1656.8017,0.074428
1658.6653,0.073405
1660.5290,0.073467
1662.3927,0.073304
1664.2563,0.072348
1666.1200,0.070247
1667.9837,0.068665
1669.8474,0.068407
1671.7110,0.068173
1673.5747,0.068262
1675.4384,0.070752
1677.3020,0.073520
1679.1657,0.074578
1681.0294,0.077381
1682.8930,0.081609
1684.7567,0.088632
1686.6204,0.090342
1688.4840,0.087994
1690.3477,0.086344
1692.2114,0.083363
1694.0750,0.080428
1695.9387,0.077909
1697.8024,0.075290
1699.6661,0.072648
1701.5297,0.068044
1703.3934,0.061757
1705.2571,0.055174
1707.1207,0.047643
1708.9844,0.042003
1710.8481,0.037702
1712.7117,0.034295
1714.5754,0.031806
1716.4391,0.030792
1718.3027,0.030875
1720.1664,0.030075
1722.0301,0.028287
1723.8937,0.026602
1725.7574,0.024806
1727.6211,0.022944
1729.4848,0.021204
1731.3484,0.019890
1733.2121,0.019206
1735.0758,0.019589
1736.9394,0.018924
1738.8031,0.017775
1740.6668,0.017778
1742.5304,0.017479
1744.3941,0.016997
1746.2578,0.016753
1748.1214,0.016324
1749.9851,0.016381
1751.8488,0.016633
1753.7125,0.016376
1755.5761,0.015780
1757.4398,0.015863
1759.3035,0.015980
1761.1671,0.015764
1763.0308,0.016220
1764.8945,0.016026
1766.7581,0.015249
1768.6218,0.015029
1770.4855,0.015234
1772.3491,0.015539
1774.2128,0.016171
1776.0765,0.015765
1777.9401,0.015688
1779.8038,0.015832
1781.6675,0.016113
1783.5312,0.015933
1785.3948,0.015658
1787.2585,0.015586
1789.1222,0.015182
1790.9858,0.015176
1792.8495,0.016165
1794.7132,0.016573
1796.5768,0.015990
1798.4405,0.015758
1800.3042,0.015922
1802.1678,0.016324
1804.0315,0.016319
1805.8952,0.016036
1807.7589,0.015980
1809.6225,0.016287
1811.4862,0.016418
1813.3499,0.016147
1815.2135,0.015816
1817.0772,0.015963
1818.9409,0.016187
1820.8045,0.016105
1822.6682,0.015896
1824.5319,0.015854
1826.3955,0.016117
1828.2592,0.015921
1830.1229,0.015915
1831.9865,0.016423
1833.8502,0.015806
1835.7139,0.015575
1837.5776,0.015619
1839.4412,0.015539
1841.3049,0.015381
1843.1686,0.015315
1845.0322,0.015861
1846.8959,0.016013
1848.7596,0.015750
1850.6232,0.016276
1852.4869,0.016344
1854.3506,0.016111
1856.2142,0.015912
1858.0779,0.016016
1859.9416,0.016157
1861.8052,0.016208
1863.6689,0.015839
1865.5326,0.015495
1867.3963,0.015517
1869.2599,0.016148
1871.1236,0.016659
1872.9873,0.016485
1874.8509,0.016203
1876.7146,0.016046
1878.5783,0.015836
1880.4419,0.015928
1882.3056,0.015883
1884.1693,0.015814
1886.0329,0.016062
1887.8966,0.016132
1889.7603,0.016238
1891.6240,0.016621
1893.4876,0.016115
1895.3513,0.015737
1897.2150,0.016025
1899.0786,0.016305
1900.9423,0.016424
1902.8060,0.016367
1904.6696,0.016097
1906.5333,0.016180
1908.3970,0.016333
1910.2606,0.016120
1912.1243,0.015732
1913.9880,0.015834
1915.8516,0.016149
1917.7153,0.016016
1919.5790,0.015970
1921.4427,0.016180
1923.3063,0.015954
1925.1700,0.015537
1927.0337,0.015390
1928.8973,0.015580
1930.7610,0.015204
1932.6247,0.015023
1934.4883,0.014993
1936.3520,0.014812
1938.2157,0.014615
1940.0793,0.015004
1941.9430,0.015244
1943.8067,0.014418
1945.6704,0.013569
1947.5340,0.013714
1949.3977,0.013620
1951.2614,0.013491
1953.1250,0.013605
1954.9887,0.013230
1956.8524,0.011768
1958.7160,0.011073
1960.5797,0.011114
1962.4434,0.010977
1964.3070,0.010545
1966.1707,0.008937
1968.0344,0.007229
1969.8980,0.007459
1971.7617,0.007998
1973.6254,0.007906
1975.4891,0.006978
1977.3527,0.007320
1979.2164,0.009233
1981.0801,0.010560
1982.9437,0.010367
1984.8074,0.009930
1986.6711,0.009425
1988.5347,0.009457
1990.3984,0.010151
1992.2621,0.010021
1994.1257,0.010049
1995.9894,0.011676
1997.8531,0.012095
1999.7167,0.010887
2001.5804,0.010068
2003.4441,0.010500
2005.3078,0.010301
2007.1714,0.009613
2009.0351,0.009624
2010.8988,0.009120
2012.7624,0.007556
2014.6261,0.007641
2016.4898,0.008673
2018.3534,0.008876
2020.2171,0.008204
2022.0808,0.008212
2023.9444,0.008967
2025.8081,0.008589
2027.6718,0.007395
2029.5355,0.007452
2031.3991,0.008313
2033.2628,0.009264
2035.1265,0.009322
2036.9901,0.009384
2038.8538,0.009859
2040.7175,0.009725
2042.5811,0.010021
2044.4448,0.011266
2046.3085,0.011862
2048.1721,0.012265
2050.0358,0.013790
2051.8995,0.014896
2053.7631,0.014276
2055.6268,0.014077
2057.4905,0.014886
2059.3542,0.015359
2061.2178,0.015403
2063.0815,0.016086
2064.9452,0.016471
2066.8088,0.016257
2068.6725,0.016648
2070.5362,0.017010
2072.3998,0.016909
2074.2635,0.017499
2076.1272,0.017766
2077.9908,0.017827
2079.8545,0.018087
2081.7182,0.017839
2083.5819,0.017572
2085.4455,0.018068
2087.3092,0.018579
2089.1729,0.018711
2091.0365,0.018695
2092.9002,0.018389
2094.7639,0.018140
2096.6275,0.018835
2098.4912,0.019068
2100.3549,0.018734
2102.2185,0.018603
2104.0822,0.018505
2105.9459,0.018617
2107.8095,0.018995
2109.6732,0.019630
2111.5369,0.020125
2113.4006,0.020012
2115.2642,0.019898
2117.1279,0.019969
2118.9916,0.020087
2120.8552,0.019936
2122.7189,0.019650
2124.5826,0.019100
2126.4462,0.018834
2128.3099,0.018614
2130.1736,0.017875
2132.0372,0.017232
2133.9009,0.016811
2135.7646,0.016351
2137.6282,0.016579
2139.4919,0.016651
2141.3556,0.015623
2143.2193,0.015148
2145.0829,0.015515
2146.9466,0.014098
2148.8103,0.012277
2150.6739,0.011385
2152.5376,0.010595
2154.4013,0.009388
2156.2649,0.008842
2158.1286,0.007523
2159.9923,0.006656
2161.8559,0.008567
2163.7196,0.009619
2165.5833,0.010288
2167.4470,0.011841
2169.3106,0.011821
2171.1743,0.011761
2173.0380,0.012124
2174.9016,0.012451
2176.7653,0.012816
2178.6290,0.012697
2180.4926,0.012776
2182.3563,0.012943
2184.2200,0.013674
2186.0836,0.014732
2187.9473,0.014771
2189.8110,0.014339
2191.6746,0.013635
2193.5383,0.014414
2195.4020,0.015988
2197.2657,0.016761
2199.1293,0.016871
2200.9930,0.017163
2202.8567,0.017571
2204.7203,0.017274
2206.5840,0.017334
2208.4477,0.018267
2210.3113,0.018317
2212.1750,0.017963
2214.0387,0.017847
2215.9023,0.017293
2217.7660,0.016913
2219.6297,0.017460
2221.4934,0.018247
2223.3570,0.019464
2225.2207,0.019940
2227.0844,0.019525
2228.9480,0.019254
2230.8117,0.018963
2232.6754,0.019114
2234.5390,0.019907
2236.4027,0.020324
2238.2664,0.020311
2240.1300,0.020171
2241.9937,0.020060
2243.8574,0.020306
2245.7210,0.021147
2247.5847,0.021486
2249.4484,0.021744
2251.3121,0.022592
2253.1757,0.022679
2255.0394,0.022419
2256.9031,0.022488
2258.7667,0.022264
2260.6304,0.022455
2262.4941,0.022616
2264.3577,0.022498
2266.2214,0.022533
2268.0851,0.023164
2269.9487,0.023657
2271.8124,0.023767
2273.6761,0.024310
2275.5397,0.024983
2277.4034,0.025156
2279.2671,0.025251
2281.1308,0.025424
2282.9944,0.026085
2284.8581,0.026662
2286.7218,0.026581
2288.5854,0.026382
2290.4491,0.026196
2292.3128,0.026109
2294.1764,0.026212
2296.0401,0.026621
2297.9038,0.026934
2299.7674,0.026880
2301.6311,0.027129
2303.4948,0.027202
2305.3585,0.026915
2307.2221,0.027041
2309.0858,0.027304
2310.9495,0.027048
2312.8131,0.026950
2314.6768,0.027176
2316.5405,0.027373
2318.4041,0.027576
2320.2678,0.027534
2322.1315,0.027295
2323.9951,0.027437
2325.8588,0.027004
2327.7225,0.026437
2329.5861,0.026577
2331.4498,0.026658
2333.3135,0.026723
2335.1772,0.026820
2337.0408,0.026590
2338.9045,0.026719
2340.7682,0.027237
2342.6318,0.027460
2344.4955,0.027327
2346.3592,0.027113
2348.2228,0.026760
2350.0865,0.026224
2351.9502,0.025979
2353.8138,0.026285
2355.6775,0.026506
2357.5412,0.026314
2359.4049,0.026107
2361.2685,0.026245
2363.1322,0.026393
2364.9959,0.026784
2366.8595,0.027260
2368.7232,0.027529
2370.5869,0.027280
2372.4505,0.027019
2374.3142,0.027322
2376.1779,0.027849
2378.0415,0.027759
2379.9052,0.027722
2381.7689,0.027934
2383.6325,0.027913
2385.4962,0.027745
2387.3599,0.027445
2389.2236,0.027246
2391.0872,0.027337
2392.9509,0.027408
2394.8146,0.027356
2396.6782,0.027475
2398.5419,0.027693
2400.4056,0.027861
2402.2692,0.027954
2404.1329,0.027703
2405.9966,0.027798
2407.8602,0.028093
2409.7239,0.028197
2411.5876,0.028158
2413.4512,0.028457
2415.3149,0.028821
2417.1786,0.028620
2419.0423,0.028243
2420.9059,0.028361
2422.7696,0.028575
2424.6333,0.028712
2426.4969,0.028850
2428.3606,0.029152
2430.2243,0.029364
2432.0879,0.029205
2433.9516,0.028880
2435.8153,0.028707
2437.6789,0.028694
2439.5426,0.029081
2441.4063,0.029077
2443.2700,0.029016
2445.1336,0.029464
2446.9973,0.029435
2448.8610,0.029088
2450.7246,0.029140
2452.5883,0.029576
2454.4520,0.029848
2456.3156,0.029175
2458.1793,0.028682
2460.0430,0.028877
2461.9066,0.029048
2463.7703,0.029162
2465.6340,0.029029
2467.4976,0.029008
2469.3613,0.029229
2471.2250,0.028953
2473.0887,0.028765
2474.9523,0.028883
2476.8160,0.028949
2478.6797,0.029018
2480.5433,0.029610
2482.4070,0.030047
2484.2707,0.029760
2486.1343,0.029362
2487.9980,0.029484
2489.8617,0.029888
2491.7253,0.030195
2493.5890,0.030271
2495.4527,0.030244
2497.3164,0.029912
2499.1800,0.029973
2501.0437,0.030374
2502.9074,0.030573
2504.7710,0.030571
2506.6347,0.030601
2508.4984,0.030780
2510.3620,0.030670
2512.2257,0.030540
2514.0894,0.030622
2515.9530,0.030754
2517.8167,0.031042
2519.6804,0.031172
2521.5440,0.031455
2523.4077,0.031670
2525.2714,0.031634
2527.1351,0.031606
