Wavenumber,Intensity
650.4205,0.199378
652.2841,0.197144
654.1478,0.193872
656.0115,0.192191
657.8751,0.192167
659.7388,0.189039
661.6025,0.185490
663.4661,0.181157
665.3298,0.178936
667.1935,0.178611
669.0571,0.179596
670.9208,0.177543
672.7845,0.176268
674.6481,0.176300
676.5118,0.178051
678.3755,0.177431
680.2392,0.177924
682.1028,0.177839
683.9665,0.177437
685.8302,0.177194
687.6938,0.177782
689.5575,0.177353
691.4212,0.177898
693.2848,0.178677
695.1485,0.180471
697.0122,0.181513
698.8758,0.182677
700.7395,0.183582
702.6032,0.182902
704.4669,0.180923
706.3305,0.178264
708.1942,0.172856
710.0579,0.166254
711.9215,0.159762
713.7852,0.154098
715.6489,0.147892
717.5125,0.142229
719.3762,0.136819
721.2399,0.132301
723.1035,0.127714
724.9672,0.124034
726.8309,0.120910
728.6945,0.118035
730.5582,0.114518
732.4219,0.111020
734.2856,0.108941
736.1492,0.107612
738.0129,0.106290
739.8766,0.106625
741.7402,0.108636
743.6039,0.111152
745.4676,0.112377
747.3312,0.113830
749.1949,0.114978
751.0586,0.115368
752.9222,0.115100
754.7859,0.115324
756.6496,0.115372
758.5132,0.115249
760.3769,0.114653
762.2406,0.113608
764.1043,0.111879
765.9679,0.109910
767.8316,0.108380
769.6953,0.107372
771.5589,0.106009
773.4226,0.104846
775.2863,0.103976
777.1499,0.103752
779.0136,0.103755
780.8773,0.103957
782.7409,0.104235
784.6046,0.104570
786.4683,0.104936
788.3320,0.105575
790.1956,0.106359
792.0593,0.107451
793.9230,0.108335
795.7866,0.108865
797.6503,0.109314
799.5140,0.109781
801.3776,0.109618
803.2413,0.109529
805.1050,0.109528
806.9686,0.109244
808.8323,0.108184
810.6960,0.106465
812.5596,0.104107
814.4233,0.102145
816.2870,0.100689
818.1507,0.099544
820.0143,0.098356
821.8780,0.097494
823.7417,0.097431
825.6053,0.098465
827.4690,0.100568
829.3327,0.102162
831.1963,0.099365
833.0600,0.092637
834.9237,0.086948
836.7873,0.084481
838.6510,0.083945
840.5147,0.084316
842.3784,0.084478
844.2420,0.084439
846.1057,0.084451
847.9694,0.084269
849.8330,0.083733
851.6967,0.083231
853.5604,0.083078
855.4240,0.082864
857.2877,0.082249
859.1514,0.081626
861.0150,0.080853
862.8787,0.079865
864.7424,0.078991
866.6060,0.078181
868.4697,0.077417
870.3334,0.076853
872.1971,0.076401
874.0607,0.076277
875.9244,0.076464
877.7881,0.077061
879.6517,0.077919
881.5154,0.079030
883.3791,0.080281
885.2427,0.081656
887.1064,0.083262
888.9701,0.085014
890.8337,0.086478
892.6974,0.087792
894.5611,0.089294
896.4247,0.090851
898.2884,0.092524
900.1521,0.094363
902.0158,0.096477
903.8794,0.099239
905.7431,0.102714
907.6068,0.106856
909.4704,0.111527
911.3341,0.116976
913.1978,0.122562
915.0614,0.125064
916.9251,0.120019
918.7888,0.110219
920.6524,0.103046
922.5161,0.100420
924.3798,0.099775
926.2435,0.099766
928.1071,0.099938
929.9708,0.100042
931.8345,0.100066
933.6981,0.100157
935.5618,0.100079
937.4255,0.099738
939.2891,0.099283
941.1528,0.098857
943.0165,0.098707
944.8801,0.099068
946.7438,0.099931
948.6075,0.101624
950.4711,0.104028
952.3348,0.106813
954.1985,0.109842
956.0622,0.113279
957.9258,0.117024
959.7895,0.120848
961.6532,0.124969
963.5168,0.129553
965.3805,0.134459
967.2442,0.139942
969.1078,0.146097
970.9715,0.152711
972.8352,0.159967
974.6988,0.169096
976.5625,0.181086
978.4262,0.197480
980.2899,0.217151
982.1535,0.225697
984.0172,0.208831
985.8809,0.185968
987.7445,0.176206
989.6082,0.175358
991.4719,0.176009
993.3355,0.176517
995.1992,0.176625
997.0629,0.176394
998.9265,0.176074
1000.7902,0.175844
1002.6539,0.175577
1004.5175,0.175664
1006.3812,0.176082
1008.2449,0.176867
1010.1086,0.177909
1011.9722,0.178757
1013.8359,0.179056
1015.6996,0.178926
1017.5632,0.178292
1019.4269,0.177130
1021.2906,0.175354
1023.1542,0.173326
1025.0179,0.171012
1026.8816,0.168533
1028.7452,0.166326
1030.6089,0.164439
1032.4726,0.162544
1034.3362,0.160866
1036.1999,0.159475
1038.0636,0.158408
1039.9273,0.157596
1041.7909,0.157090
1043.6546,0.156632
1045.5183,0.156226
1047.3819,0.154952
1049.2456,0.151584
1051.1093,0.145488
1052.9729,0.137305
1054.8366,0.129226
1056.7003,0.123130
1058.5639,0.119025
1060.4276,0.116235
1062.2913,0.114417
1064.1550,0.113729
1066.0186,0.114476
1067.8823,0.116990
1069.7460,0.121107
1071.6096,0.125770
1073.4733,0.129984
1075.3370,0.132825
1077.2006,0.133961
1079.0643,0.133606
1080.9280,0.132073
1082.7916,0.130059
1084.6553,0.128129
1086.5190,0.126585
1088.3826,0.125701
1090.2463,0.125821
1092.1100,0.127069
1093.9737,0.129530
1095.8373,0.132997
1097.7010,0.137111
1099.5647,0.141423
1101.4283,0.145612
1103.2920,0.148932
1105.1557,0.150833
1107.0193,0.150347
1108.8830,0.146438
1110.7467,0.139305
1112.6103,0.130465
1114.4740,0.121588
1116.3377,0.113621
1118.2014,0.106897
1120.0650,0.101886
1121.9287,0.098425
1123.7924,0.096079
1125.6560,0.094286
1127.5197,0.092648
1129.3834,0.091139
1131.2470,0.090007
1133.1107,0.089525
1134.9744,0.089649
1136.8380,0.090369
1138.7017,0.091665
1140.5654,0.093333
1142.4290,0.095007
1144.2927,0.096140
1146.1564,0.096697
1148.0201,0.096725
1149.8837,0.095927
1151.7474,0.094408
1153.6111,0.092329
1155.4747,0.089778
1157.3384,0.086953
1159.2021,0.083808
1161.0657,0.080496
1162.9294,0.077492
1164.7931,0.075123
1166.6567,0.073436
1168.5204,0.072583
1170.3841,0.072287
1172.2477,0.071788
1174.1114,0.070079
1175.9751,0.066807
1177.8388,0.063088
1179.7024,0.060272
1181.5661,0.058722
1183.4298,0.058295
1185.2934,0.058622
1187.1571,0.059210
1189.0208,0.059738
1190.8844,0.060246
1192.7481,0.060772
1194.6118,0.061348
1196.4754,0.062015
1198.3391,0.062677
1200.2028,0.063176
1202.0665,0.063519
1203.9301,0.063795
1205.7938,0.064064
1207.6575,0.064247
1209.5211,0.064385
1211.3848,0.064641
1213.2485,0.064990
1215.1121,0.065475
1216.9758,0.066113
1218.8395,0.066724
1220.7031,0.067468
1222.5668,0.068283
1224.4305,0.069014
1226.2941,0.069841
1228.1578,0.070582
1230.0215,0.071150
1231.8852,0.071726
1233.7488,0.072272
1235.6125,0.072838
1237.4762,0.073389
1239.3398,0.073836
1241.2035,0.074186
1243.0672,0.074601
1244.9308,0.075155
1246.7945,0.075634
1248.6582,0.075988
1250.5218,0.076453
1252.3855,0.077016
1254.2492,0.077531
1256.1129,0.078054
1257.9765,0.078704
1259.8402,0.079458
1261.7039,0.080235
1263.5675,0.080889
1265.4312,0.081467
1267.2949,0.081806
1269.1585,0.081813
1271.0222,0.081775
1272.8859,0.081838
1274.7495,0.082148
1276.6132,0.082801
1278.4769,0.083677
1280.3405,0.084874
1282.2042,0.086229
1284.0679,0.087629
1285.9316,0.089315
1287.7952,0.091449
1289.6589,0.093804
1291.5226,0.096363
1293.3862,0.099324
1295.2499,0.102817
1297.1136,0.106892
1298.9772,0.111650
1300.8409,0.117149
1302.7046,0.122776
1304.5682,0.126286
1306.4319,0.124855
1308.2956,0.116475
1310.1592,0.102539
1312.0229,0.088924
1313.8866,0.080437
1315.7503,0.077468
1317.6139,0.077984
1319.4776,0.080108
1321.3413,0.082337
1323.2049,0.084499
1325.0686,0.086932
1326.9323,0.089327
1328.7959,0.091510
1330.6596,0.093395
1332.5233,0.094719
1334.3869,0.095209
1336.2506,0.095461
1338.1143,0.096557
1339.9780,0.098431
1341.8416,0.098687
1343.7053,0.098320
1345.5690,0.098667
1347.4326,0.099523
1349.2963,0.100685
1351.1600,0.101895
1353.0236,0.103281
1354.8873,0.105112
1356.7510,0.106584
1358.6146,0.107606
1360.4783,0.109211
1362.3420,0.112789
1364.2056,0.115562
1366.0693,0.116251
1367.9330,0.117926
1369.7967,0.119967
1371.6603,0.121304
1373.5240,0.124432
1375.3877,0.127936
1377.2513,0.129575
1379.1150,0.132080
1380.9787,0.135485
1382.8423,0.138697
1384.7060,0.142455
1386.5697,0.148421
1388.4333,0.154781
1390.2970,0.157046
1392.1607,0.157848
1394.0244,0.158386
1395.8880,0.155564
1397.7517,0.149762
1399.6154,0.143456
1401.4790,0.136957
1403.3427,0.131920
1405.2064,0.124510
1407.0700,0.112837
1408.9337,0.100876
1410.7974,0.089908
1412.6610,0.081958
1414.5247,0.077929
1416.3884,0.077379
1418.2520,0.081149
1420.1157,0.087572
1421.9794,0.089286
1423.8431,0.087621
1425.7067,0.081455
1427.5704,0.074722
1429.4341,0.070482
1431.2977,0.068238
1433.1614,0.067132
1435.0251,0.067870
1436.8887,0.071059
1438.7524,0.072083
1440.6161,0.071848
1442.4797,0.072557
1444.3434,0.073171
1446.2071,0.073900
1448.0707,0.074621
1449.9344,0.073396
1451.7981,0.070845
1453.6618,0.068203
1455.5254,0.067637
1457.3891,0.071543
1459.2528,0.072190
1461.1164,0.070161
1462.9801,0.069730
1464.8438,0.070425
1466.7074,0.068952
1468.5711,0.066147
1470.4348,0.064563
1472.2984,0.065132
1474.1621,0.065395
1476.0258,0.064518
1477.8895,0.063401
1479.7531,0.062682
1481.6168,0.062657
1483.4805,0.062215
1485.3441,0.061711
1487.2078,0.062242
1489.0715,0.064101
1490.9351,0.065531
1492.7988,0.064418
1494.6625,0.064196
1496.5261,0.066233
1498.3898,0.068231
1500.2535,0.067893
1502.1171,0.066622
1503.9808,0.065821
1505.8445,0.068472
1507.7082,0.075791
1509.5718,0.074341
1511.4355,0.072965
1513.2992,0.072925
1515.1628,0.073600
1517.0265,0.075270
1518.8902,0.075592
1520.7538,0.077102
1522.6175,0.079521
1524.4812,0.079343
1526.3448,0.080235
1528.2085,0.080875
1530.0722,0.080419
1531.9359,0.081398
1533.7995,0.083953
1535.6632,0.083234
1537.5269,0.082210
1539.3905,0.085815
1541.2542,0.092558
1543.1179,0.092691
1544.9815,0.093286
1546.8452,0.093474
1548.7089,0.094366
1550.5725,0.096417
1552.4362,0.097234
1554.2999,0.098028
1556.1635,0.099190
1558.0272,0.104911
1559.8909,0.117021
1561.7546,0.111423
1563.6182,0.109380
1565.4819,0.110760
1567.3456,0.112577
1569.2092,0.116375
1571.0729,0.119075
1572.9366,0.118413
1574.8002,0.120982
1576.6639,0.127776
1578.5276,0.129156
1580.3912,0.128811
1582.2549,0.130527
1584.1186,0.132361
1585.9822,0.133590
1587.8459,0.134620
1589.7096,0.135332
1591.5733,0.135399
1593.4369,0.135318
1595.3006,0.135015
1597.1643,0.134037
1599.0279,0.132495
1600.8916,0.131200
1602.7553,0.129996
1604.6189,0.128667
1606.4826,0.127403
1608.3463,0.126407
1610.2099,0.124925
1612.0736,0.122602
1613.9373,0.119992
1615.8010,0.118526
1617.6646,0.114831
1619.5283,0.108880
1621.3920,0.105228
1623.2556,0.101860
1625.1193,0.096587
1626.9830,0.091937
1628.8466,0.086086
1630.7103,0.079466
1632.5740,0.074109
1634.4376,0.070214
1636.3013,0.065779
1638.1650,0.061379
1640.0286,0.059414
1641.8923,0.058234
1643.7560,0.057711
1645.6197,0.058914
1647.4833,0.061138
1649.3470,0.060923
1651.2107,0.061843
1653.0743,0.067885
1654.9380,0.070945
1656.8017,0.068481
1658.6653,0.068171
1660.5290,0.068649
1662.3927,0.069169
1664.2563,0.068292
1666.1200,0.066581
1667.9837,0.066027
1669.8474,0.066153
1671.7110,0.065220
1673.5747,0.065429
1675.4384,0.067841
1677.3020,0.069317
1679.1657,0.070045
1681.0294,0.071958
1682.8930,0.075219
1684.7567,0.080395
1686.6204,0.079977
1688.4840,0.078446
1690.3477,0.077224
1692.2114,0.074568
1694.0750,0.072266
1695.9387,0.070132
1697.8024,0.066827
1699.6661,0.065271
1701.5297,0.060771
1703.3934,0.055727
1705.2571,0.051400
1707.1207,0.045170
1708.9844,0.040562
1710.8481,0.037188
1712.7117,0.034468
1714.5754,0.032809
1716.4391,0.031873
1718.3027,0.031119
1720.1664,0.029701
1722.0301,0.028752
1723.8937,0.027818
1725.7574,0.026281
1727.6211,0.024797
1729.4848,0.023537
1731.3484,0.022224
1733.2121,0.022010
1735.0758,0.021990
1736.9394,0.020845
1738.8031,0.020603
1740.6668,0.020538
1742.5304,0.020118
1744.3941,0.019799
1746.2578,0.019616
1748.1214,0.019451
1749.9851,0.019428
1751.8488,0.019403
1753.7125,0.018946
1755.5761,0.018844
1757.4398,0.019002
1759.3035,0.018929
1761.1671,0.019117
1763.0308,0.019057
1764.8945,0.018602
1766.7581,0.018529
1768.6218,0.018384
1770.4855,0.018250
1772.3491,0.018715
1774.2128,0.018620
1776.0765,0.018283
1777.9401,0.018246
1779.8038,0.018358
1781.6675,0.018496
1783.5312,0.018620
1785.3948,0.018578
1787.2585,0.018295
1789.1222,0.018218
1790.9858,0.018546
1792.8495,0.018766
1794.7132,0.018334
1796.5768,0.018103
1798.4405,0.018286
1800.3042,0.018567
1802.1678,0.018710
1804.0315,0.018563
1805.8952,0.018414
1807.7589,0.018484
1809.6225,0.018541
1811.4862,0.018648
1813.3499,0.018694
1815.2135,0.018536
1817.0772,0.018498
1818.9409,0.018528
1820.8045,0.018520
1822.6682,0.018495
1824.5319,0.018455
1826.3955,0.018112
1828.2592,0.018005
1830.1229,0.018526
1831.9865,0.018515
1833.8502,0.018243
1835.7139,0.018143
1837.5776,0.018056
1839.4412,0.018139
1841.3049,0.018132
1843.1686,0.018266
1845.0322,0.018410
1846.8959,0.018105
1848.7596,0.018238
1850.6232,0.018499
1852.4869,0.018427
1854.3506,0.018237
1856.2142,0.018337
1858.0779,0.018349
1859.9416,0.018102
1861.8052,0.018185
1863.6689,0.018238
1865.5326,0.018049
1867.3963,0.018126
1869.2599,0.018410
1871.1236,0.018238
1872.9873,0.017910
1874.8509,0.017822
1876.7146,0.018249
1878.5783,0.018479
1880.4419,0.018022
1882.3056,0.017960
1884.1693,0.018234
1886.0329,0.018119
1887.8966,0.018139
1889.7603,0.018174
1891.6240,0.017703
1893.4876,0.017627
1895.3513,0.017806
1897.2150,0.017836
1899.0786,0.018104
1900.9423,0.018318
1902.8060,0.018032
1904.6696,0.017707
1906.5333,0.017744
1908.3970,0.017876
1910.2606,0.018276
1912.1243,0.018415
1913.9880,0.017859
1915.8516,0.017691
1917.7153,0.017819
1919.5790,0.017486
1921.4427,0.017270
1923.3063,0.017172
1925.1700,0.017187
1927.0337,0.017186
1928.8973,0.016793
1930.7610,0.016758
1932.6247,0.017232
1934.4883,0.017305
1936.3520,0.016861
1938.2157,0.016194
1940.0793,0.016042
1941.9430,0.016352
1943.8067,0.015788
1945.6704,0.015135
1947.5340,0.014767
1949.3977,0.014238
1951.2614,0.013832
1953.1250,0.013762
1954.9887,0.013824
1956.8524,0.013487
1958.7160,0.013406
1960.5797,0.012574
1962.4434,0.011096
1964.3070,0.010975
1966.1707,0.011375
1968.0344,0.010522
1969.8980,0.009032
1971.7617,0.008895
1973.6254,0.008758
1975.4891,0.007804
1977.3527,0.007605
1979.2164,0.007786
1981.0801,0.008312
1982.9437,0.008877
1984.8074,0.009595
1986.6711,0.010617
1988.5347,0.011161
1990.3984,0.011702
1992.2621,0.012212
1994.1257,0.012457
1995.9894,0.012649
1997.8531,0.012672
1999.7167,0.011922
2001.5804,0.011172
2003.4441,0.011374
2005.3078,0.010984
2007.1714,0.009492
2009.0351,0.008608
2010.8988,0.008791
2012.7624,0.008584
2014.6261,0.008434
2016.4898,0.008773
2018.3534,0.007354
2020.2171,0.006681
2022.0808,0.008550
2023.9444,0.008729
2025.8081,0.007176
2027.6718,0.007907
2029.5355,0.008771
2031.3991,0.008187
2033.2628,0.008495
2035.1265,0.009690
2036.9901,0.010763
2038.8538,0.011154
2040.7175,0.011273
2042.5811,0.011646
2044.4448,0.011950
2046.3085,0.013010
2048.1721,0.014124
2050.0358,0.014644
2051.8995,0.014910
2053.7631,0.014610
2055.6268,0.014994
2057.4905,0.016057
2059.3542,0.016596
2061.2178,0.017048
2063.0815,0.017329
2064.9452,0.017387
2066.8088,0.017751
2068.6725,0.018031
2070.5362,0.018441
2072.3998,0.018711
2074.2635,0.018540
2076.1272,0.018622
2077.9908,0.018392
2079.8545,0.018574
2081.7182,0.019655
2083.5819,0.020463
2085.4455,0.020446
2087.3092,0.019611
2089.1729,0.019337
2091.0365,0.019897
2092.9002,0.020079
2094.7639,0.019836
2096.6275,0.019707
2098.4912,0.020007
2100.3549,0.020263
2102.2185,0.020391
2104.0822,0.020228
2105.9459,0.019801
2107.8095,0.019901
2109.6732,0.020410
2111.5369,0.020961
2113.4006,0.020943
2115.2642,0.020698
2117.1279,0.020598
2118.9916,0.020596
2120.8552,0.021036
2122.7189,0.020986
2124.5826,0.020251
2126.4462,0.020164
2128.3099,0.020256
2130.1736,0.019560
2132.0372,0.018583
2133.9009,0.018054
2135.7646,0.018093
2137.6282,0.018225
2139.4919,0.018013
2141.3556,0.016900
2143.2193,0.015232
2145.0829,0.014543
2146.9466,0.014280
2148.8103,0.014161
2150.6739,0.014003
2152.5376,0.012060
2154.4013,0.008776
2156.2649,0.007707
2158.1286,0.009494
2159.9923,0.010832
2161.8559,0.010389
2163.7196,0.010070
2165.5833,0.011752
2167.4470,0.012798
2169.3106,0.012361
2171.1743,0.012411
2173.0380,0.012416
2174.9016,0.012171
2176.7653,0.013413
2178.6290,0.014510
2180.4926,0.014290
2182.3563,0.014963
2184.2200,0.015248
2186.0836,0.014994
2187.9473,0.015824
2189.8110,0.015980
2191.6746,0.015884
2193.5383,0.016318
2195.4020,0.015893
2197.2657,0.015691
2199.1293,0.016322
2200.9930,0.016646
2202.8567,0.016558
2204.7203,0.016746
2206.5840,0.017897
2208.4477,0.018343
2210.3113,0.017979
2212.1750,0.018097
2214.0387,0.018491
2215.9023,0.019053
2217.7660,0.019141
2219.6297,0.019467
2221.4934,0.019361
2223.3570,0.019424
2225.2207,0.020541
2227.0844,0.021221
2228.9480,0.020990
2230.8117,0.020501
2232.6754,0.020046
2234.5390,0.020075
2236.4027,0.021033
2238.2664,0.022361
2240.1300,0.022720
2241.9937,0.022210
2243.8574,0.022023
2245.7210,0.022023
2247.5847,0.022042
2249.4484,0.022178
2251.3121,0.022692
2253.1757,0.022564
2255.0394,0.022607
2256.9031,0.023598
2258.7667,0.024049
2260.6304,0.023682
2262.4941,0.023557
2264.3577,0.023398
2266.2214,0.024039
2268.0851,0.025033
2269.9487,0.024704
2271.8124,0.024518
2273.6761,0.025430
2275.5397,0.026375
2277.4034,0.026391
2279.2671,0.026451
2281.1308,0.027048
2282.9944,0.027770
2284.8581,0.028244
2286.7218,0.028349
2288.5854,0.028348
2290.4491,0.028249
2292.3128,0.027779
2294.1764,0.027434
2296.0401,0.027723
2297.9038,0.027823
2299.7674,0.027840
2301.6311,0.028110
2303.4948,0.028246
2305.3585,0.028446
2307.2221,0.028606
2309.0858,0.028665
2310.9495,0.028602
2312.8131,0.028548
2314.6768,0.028568
2316.5405,0.028710
2318.4041,0.028768
2320.2678,0.029148
2322.1315,0.029569
2323.9951,0.029438
2325.8588,0.028946
2327.7225,0.028358
2329.5861,0.028180
2331.4498,0.028315
2333.3135,0.028063
2335.1772,0.028100
2337.0408,0.028723
2338.9045,0.028973
2340.7682,0.028743
2342.6318,0.028958
2344.4955,0.029273
2346.3592,0.029063
2348.2228,0.028517
2350.0865,0.028123
2351.9502,0.027895
2353.8138,0.027870
2355.6775,0.027984
2357.5412,0.028130
2359.4049,0.028353
2361.2685,0.028486
2363.1322,0.028416
2364.9959,0.028325
2366.8595,0.028160
2368.7232,0.028245
2370.5869,0.028648
2372.4505,0.029028
2374.3142,0.029387
2376.1779,0.029614
2378.0415,0.029504
2379.9052,0.029355
2381.7689,0.029189
2383.6325,0.029125
2385.4962,0.029076
2387.3599,0.028939
2389.2236,0.028727
2391.0872,0.028785
2392.9509,0.028954
2394.8146,0.028901
2396.6782,0.028984
2398.5419,0.029295
2400.4056,0.029411
2402.2692,0.029324
2404.1329,0.029462
2405.9966,0.029709
2407.8602,0.029997
2409.7239,0.030106
2411.5876,0.029781
2413.4512,0.029770
2415.3149,0.030008
2417.1786,0.030115
2419.0423,0.030278
2420.9059,0.030353
2422.7696,0.030456
2424.6333,0.030520
2426.4969,0.030232
2428.3606,0.030294
2430.2243,0.030460
2432.0879,0.030540
2433.9516,0.030925
2435.8153,0.030824
2437.6789,0.030494
2439.5426,0.030600
2441.4063,0.030804
2443.2700,0.030841
2445.1336,0.030803
2446.9973,0.030810
2448.8610,0.030683
2450.7246,0.030889
2452.5883,0.031320
2454.4520,0.031439
2456.3156,0.031300
2458.1793,0.031285
2460.0430,0.031307
2461.9066,0.031089
2463.7703,0.030844
2465.6340,0.031012
2467.4976,0.031343
2469.3613,0.031545
2471.2250,0.031619
2473.0887,0.031519
2474.9523,0.031305
2476.8160,0.031353
2478.6797,0.031510
2480.5433,0.031558
2482.4070,0.031658
2484.2707,0.031702
2486.1343,0.031550
2487.9980,0.031603
2489.8617,0.031866
2491.7253,0.031917
2493.5890,0.032003
2495.4527,0.032427
2497.3164,0.032761
2499.1800,0.032624
2501.0437,0.032268
2502.9074,0.032552
2504.7710,0.032957
2506.6347,0.033124
2508.4984,0.033400
2510.3620,0.033542
2512.2257,0.033200
2514.0894,0.032910
2515.9530,0.032756
2517.8167,0.032900
2519.6804,0.033300
2521.5440,0.033456
2523.4077,0.033488
2525.2714,0.033703
2527.1351,0.034127
