Wavenumber,Intensity
650.4205,0.256466
652.2841,0.275200
654.1478,0.296146
656.0115,0.318596
657.8751,0.346372
659.7388,0.378205
661.6025,0.412293
663.4661,0.440328
665.3298,0.462710
667.1935,0.475307
669.0571,0.460855
670.9208,0.418314
672.7845,0.376700
674.6481,0.339644
676.5118,0.313760
678.3755,0.294510
680.2392,0.280626
682.1028,0.265756
683.9665,0.247515
685.8302,0.227954
687.6938,0.210832
689.5575,0.194613
691.4212,0.180434
693.2848,0.167906
695.1485,0.156340
697.0122,0.147876
698.8758,0.143188
700.7395,0.139761
702.6032,0.138139
704.4669,0.136248
706.3305,0.133406
708.1942,0.129935
710.0579,0.126498
711.9215,0.122851
713.7852,0.119567
715.6489,0.117046
717.5125,0.114209
719.3762,0.110920
721.2399,0.107561
723.1035,0.105387
724.9672,0.104174
726.8309,0.102792
728.6945,0.101451
730.5582,0.100071
732.4219,0.099516
734.2856,0.099286
736.1492,0.098534
738.0129,0.098355
739.8766,0.099833
741.7402,0.102422
743.6039,0.105199
745.4676,0.107545
747.3312,0.108930
749.1949,0.109756
751.0586,0.110558
752.9222,0.110975
754.7859,0.111656
756.6496,0.113104
758.5132,0.114537
760.3769,0.115340
762.2406,0.116436
764.1043,0.117951
765.9679,0.119377
767.8316,0.120452
769.6953,0.121671
771.5589,0.123073
773.4226,0.125245
775.2863,0.127700
777.1499,0.130652
779.0136,0.133974
780.8773,0.136283
782.7409,0.136866
784.6046,0.137470
786.4683,0.139132
788.3320,0.140979
790.1956,0.142342
792.0593,0.144551
793.9230,0.147069
795.7866,0.149840
797.6503,0.152677
799.5140,0.155524
801.3776,0.158152
803.2413,0.160152
805.1050,0.161957
806.9686,0.163816
808.8323,0.165052
810.6960,0.166263
812.5596,0.167638
814.4233,0.168550
816.2870,0.168698
818.1507,0.169599
820.0143,0.171493
821.8780,0.173567
823.7417,0.176083
825.6053,0.179579
827.4690,0.183930
829.3327,0.188125
831.1963,0.188543
833.0600,0.184782
834.9237,0.181266
836.7873,0.180880
838.6510,0.182836
840.5147,0.185829
842.3784,0.189006
844.2420,0.192349
846.1057,0.195722
847.9694,0.199301
849.8330,0.202545
851.6967,0.206094
853.5604,0.209922
855.4240,0.213526
857.2877,0.216770
859.1514,0.220290
861.0150,0.223854
862.8787,0.227281
864.7424,0.230547
866.6060,0.234176
868.4697,0.237977
870.3334,0.241865
872.1971,0.245912
874.0607,0.250499
875.9244,0.255433
877.7881,0.260244
879.6517,0.264718
881.5154,0.269183
883.3791,0.273575
885.2427,0.277901
887.1064,0.281811
888.9701,0.285347
890.8337,0.288257
892.6974,0.291136
894.5611,0.294335
896.4247,0.298187
898.2884,0.302628
900.1521,0.307453
902.0158,0.312528
903.8794,0.318482
905.7431,0.325560
907.6068,0.333472
909.4704,0.341467
911.3341,0.349650
913.1978,0.358049
915.0614,0.364060
916.9251,0.362302
918.7888,0.355246
920.6524,0.350722
922.5161,0.351298
924.3798,0.354429
926.2435,0.358312
928.1071,0.362486
929.9708,0.366983
931.8345,0.371650
933.6981,0.376352
935.5618,0.380639
937.4255,0.384692
939.2891,0.388635
941.1528,0.392852
943.0165,0.397049
944.8801,0.401025
946.7438,0.404978
948.6075,0.409245
950.4711,0.413466
952.3348,0.417924
954.1985,0.422804
956.0622,0.428024
957.9258,0.433064
959.7895,0.438026
961.6532,0.442832
963.5168,0.447918
965.3805,0.453458
967.2442,0.459799
969.1078,0.466552
970.9715,0.473430
972.8352,0.480448
974.6988,0.488705
976.5625,0.499436
978.4262,0.513989
980.2899,0.529924
982.1535,0.533075
984.0172,0.514299
985.8809,0.494599
987.7445,0.489779
989.6082,0.493472
991.4719,0.497664
993.3355,0.500922
995.1992,0.503358
997.0629,0.505303
998.9265,0.506822
1000.7902,0.507945
1002.6539,0.508015
1004.5175,0.506936
1006.3812,0.504222
1008.2449,0.499024
1010.1086,0.490119
1011.9722,0.477292
1013.8359,0.461014
1015.6996,0.441772
1017.5632,0.420257
1019.4269,0.397642
1021.2906,0.374591
1023.1542,0.351979
1025.0179,0.330750
1026.8816,0.311516
1028.7452,0.294186
1030.6089,0.278154
1032.4726,0.262931
1034.3362,0.248549
1036.1999,0.235161
1038.0636,0.222807
1039.9273,0.211315
1041.7909,0.200625
1043.6546,0.190802
1045.5183,0.181937
1047.3819,0.173919
1049.2456,0.166552
1051.1093,0.159703
1052.9729,0.154011
1054.8366,0.150322
1056.7003,0.148525
1058.5639,0.147738
1060.4276,0.147104
1062.2913,0.146180
1064.1550,0.145102
1066.0186,0.144158
1067.8823,0.143321
1069.7460,0.142672
1071.6096,0.142142
1073.4733,0.141519
1075.3370,0.140712
1077.2006,0.139531
1079.0643,0.138188
1080.9280,0.136893
1082.7916,0.135717
1084.6553,0.134762
1086.5190,0.133915
1088.3826,0.133274
1090.2463,0.133060
1092.1100,0.133216
1093.9737,0.133596
1095.8373,0.133965
1097.7010,0.134317
1099.5647,0.134855
1101.4283,0.135455
1103.2920,0.135713
1105.1557,0.135245
1107.0193,0.133538
1108.8830,0.130020
1110.7467,0.124653
1112.6103,0.118372
1114.4740,0.112179
1116.3377,0.106545
1118.2014,0.101732
1120.0650,0.097844
1121.9287,0.094864
1123.7924,0.092394
1125.6560,0.089991
1127.5197,0.087581
1129.3834,0.085110
1131.2470,0.082584
1133.1107,0.080177
1134.9744,0.077984
1136.8380,0.075862
1138.7017,0.073861
1140.5654,0.072086
1142.4290,0.070309
1144.2927,0.068462
1146.1564,0.066682
1148.0201,0.065021
1149.8837,0.063561
1151.7474,0.062279
1153.6111,0.061060
1155.4747,0.059922
1157.3384,0.058964
1159.2021,0.058280
1161.0657,0.057735
1162.9294,0.057274
1164.7931,0.057114
1166.6567,0.057277
1168.5204,0.057678
1170.3841,0.058254
1172.2477,0.058501
1174.1114,0.057719
1175.9751,0.055882
1177.8388,0.053684
1179.7024,0.051917
1181.5661,0.050917
1183.4298,0.050521
1185.2934,0.050418
1187.1571,0.050417
1189.0208,0.050467
1190.8844,0.050449
1192.7481,0.050462
1194.6118,0.050599
1196.4754,0.050718
1198.3391,0.050934
1200.2028,0.051342
1202.0665,0.051789
1203.9301,0.052219
1205.7938,0.052555
1207.6575,0.052809
1209.5211,0.053147
1211.3848,0.053503
1213.2485,0.053770
1215.1121,0.054050
1216.9758,0.054244
1218.8395,0.054336
1220.7031,0.054462
1222.5668,0.054527
1224.4305,0.054569
1226.2941,0.054600
1228.1578,0.054622
1230.0215,0.054699
1231.8852,0.054712
1233.7488,0.054709
1235.6125,0.054776
1237.4762,0.054792
1239.3398,0.054840
1241.2035,0.054936
1243.0672,0.055034
1244.9308,0.055106
1246.7945,0.055155
1248.6582,0.055282
1250.5218,0.055464
1252.3855,0.055666
1254.2492,0.055851
1256.1129,0.055971
1257.9765,0.056185
1259.8402,0.056563
1261.7039,0.056913
1263.5675,0.057218
1265.4312,0.057542
1267.2949,0.057734
1269.1585,0.057776
1271.0222,0.057818
1272.8859,0.057920
1274.7495,0.058171
1276.6132,0.058597
1278.4769,0.059111
1280.3405,0.059756
1282.2042,0.060459
1284.0679,0.061297
1285.9316,0.062326
1287.7952,0.063486
1289.6589,0.064904
1291.5226,0.066480
1293.3862,0.068250
1295.2499,0.070370
1297.1136,0.072903
1298.9772,0.075883
1300.8409,0.079322
1302.7046,0.082932
1304.5682,0.085467
1306.4319,0.084957
1308.2956,0.080093
1310.1592,0.071671
1312.0229,0.063193
1313.8866,0.057743
1315.7503,0.055769
1317.6139,0.056061
1319.4776,0.057321
1321.3413,0.058629
1323.2049,0.059892
1325.0686,0.061286
1326.9323,0.062720
1328.7959,0.064085
1330.6596,0.065359
1332.5233,0.066433
1334.3869,0.067234
1336.2506,0.067891
1338.1143,0.068887
1339.9780,0.070318
1341.8416,0.071046
1343.7053,0.071324
1345.5690,0.072000
1347.4326,0.072822
1349.2963,0.073752
1351.1600,0.074671
1353.0236,0.075547
1354.8873,0.076494
1356.7510,0.077261
1358.6146,0.077812
1360.4783,0.078831
1362.3420,0.080793
1364.2056,0.082264
1366.0693,0.082624
1367.9330,0.083693
1369.7967,0.085041
1371.6603,0.085956
1373.5240,0.087775
1375.3877,0.089952
1377.2513,0.091120
1379.1150,0.092855
1380.9787,0.095152
1382.8423,0.097363
1384.7060,0.099909
1386.5697,0.103685
1388.4333,0.107934
1390.2970,0.109953
1392.1607,0.111023
1394.0244,0.111681
1395.8880,0.109871
1397.7517,0.106117
1399.6154,0.101836
1401.4790,0.097513
1403.3427,0.093816
1405.2064,0.089062
1407.0700,0.081946
1408.9337,0.074075
1410.7974,0.066496
1412.6610,0.060791
1414.5247,0.057846
1416.3884,0.057373
1418.2520,0.059608
1420.1157,0.063411
1421.9794,0.064794
1423.8431,0.064317
1425.7067,0.061251
1427.5704,0.057138
1429.4341,0.054443
1431.2977,0.053135
1433.1614,0.052599
1435.0251,0.053169
1436.8887,0.055313
1438.7524,0.056305
1440.6161,0.056213
1442.4797,0.056651
1444.3434,0.057015
1446.2071,0.057415
1448.0707,0.057769
1449.9344,0.056954
1451.7981,0.055285
1453.6618,0.053691
1455.5254,0.053490
1457.3891,0.055897
1459.2528,0.056347
1461.1164,0.055172
1462.9801,0.054957
1464.8438,0.055376
1466.7074,0.054813
1468.5711,0.053416
1470.4348,0.052642
1472.2984,0.053038
1474.1621,0.053333
1476.0258,0.052801
1477.8895,0.052413
1479.7531,0.052042
1481.6168,0.052028
1483.4805,0.051776
1485.3441,0.051400
1487.2078,0.051591
1489.0715,0.052587
1490.9351,0.053147
1492.7988,0.052274
1494.6625,0.051875
1496.5261,0.052974
1498.3898,0.054075
1500.2535,0.053956
1502.1171,0.053273
1503.9808,0.052841
1505.8445,0.054194
1507.7082,0.057912
1509.5718,0.057186
1511.4355,0.056411
1513.2992,0.056382
1515.1628,0.056692
1517.0265,0.057600
1518.8902,0.057853
1520.7538,0.058532
1522.6175,0.060004
1524.4812,0.059590
1526.3448,0.059999
1528.2085,0.060382
1530.0722,0.060134
1531.9359,0.060641
1533.7995,0.062074
1535.6632,0.061730
1537.5269,0.061194
1539.3905,0.063251
1541.2542,0.066603
1543.1179,0.066686
1544.9815,0.067087
1546.8452,0.067303
1548.7089,0.068030
1550.5725,0.069535
1552.4362,0.070154
1554.2999,0.070687
1556.1635,0.071575
1558.0272,0.074326
1559.8909,0.081173
1561.7546,0.079084
1563.6182,0.078104
1565.4819,0.079081
1567.3456,0.080363
1569.2092,0.082646
1571.0729,0.084596
1572.9366,0.084526
1574.8002,0.086297
1576.6639,0.090116
1578.5276,0.091432
1580.3912,0.091633
1582.2549,0.093107
1584.1186,0.094546
1585.9822,0.095756
1587.8459,0.096533
1589.7096,0.097065
1591.5733,0.097171
1593.4369,0.097142
1595.3006,0.096967
1597.1643,0.096561
1599.0279,0.095839
1600.8916,0.095149
1602.7553,0.094381
1604.6189,0.093517
1606.4826,0.092722
1608.3463,0.092023
1610.2099,0.090917
1612.0736,0.089323
1613.9373,0.087532
1615.8010,0.086230
1617.6646,0.083844
1619.5283,0.080326
1621.3920,0.077853
1623.2556,0.075367
1625.1193,0.072178
1626.9830,0.069260
1628.8466,0.065531
1630.7103,0.061143
1632.5740,0.057635
1634.4376,0.054617
1636.3013,0.051091
1638.1650,0.048331
1640.0286,0.047157
1641.8923,0.046363
1643.7560,0.046257
1645.6197,0.047192
1647.4833,0.048467
1649.3470,0.048216
1651.2107,0.048850
1653.0743,0.052278
1654.9380,0.054883
1656.8017,0.053841
1658.6653,0.054029
1660.5290,0.054634
1662.3927,0.055399
1664.2563,0.055205
1666.1200,0.054410
1667.9837,0.054344
1669.8474,0.054802
1671.7110,0.054236
1673.5747,0.054140
1675.4384,0.055353
1677.3020,0.056341
1679.1657,0.056724
1681.0294,0.058027
1682.8930,0.060215
1684.7567,0.064237
1686.6204,0.064553
1688.4840,0.063651
1690.3477,0.063087
1692.2114,0.061641
1694.0750,0.060006
1695.9387,0.058346
1697.8024,0.055866
1699.6661,0.054652
1701.5297,0.051653
1703.3934,0.048212
1705.2571,0.045169
1707.1207,0.041170
1708.9844,0.037761
1710.8481,0.035075
1712.7117,0.032828
1714.5754,0.031610
1716.4391,0.030583
1718.3027,0.029757
1720.1664,0.028802
1722.0301,0.028145
1723.8937,0.027342
1725.7574,0.026192
1727.6211,0.025145
1729.4848,0.024425
1731.3484,0.023677
1733.2121,0.023368
1735.0758,0.022872
1736.9394,0.022231
1738.8031,0.022050
1740.6668,0.022035
1742.5304,0.021726
1744.3941,0.021498
1746.2578,0.021263
1748.1214,0.021262
1749.9851,0.020957
1751.8488,0.020701
1753.7125,0.020458
1755.5761,0.020455
1757.4398,0.020518
1759.3035,0.020260
1761.1671,0.020215
1763.0308,0.020412
1764.8945,0.020208
1766.7581,0.020007
1768.6218,0.019887
1770.4855,0.019907
1772.3491,0.019913
1774.2128,0.019648
1776.0765,0.019301
1777.9401,0.019406
1779.8038,0.019662
1781.6675,0.019723
1783.5312,0.019562
1785.3948,0.019788
1787.2585,0.019652
1789.1222,0.019688
1790.9858,0.020123
1792.8495,0.020349
1794.7132,0.019842
1796.5768,0.019751
1798.4405,0.019984
1800.3042,0.020291
1802.1678,0.020290
1804.0315,0.020206
1805.8952,0.020129
1807.7589,0.020243
1809.6225,0.020229
1811.4862,0.020273
1813.3499,0.020291
1815.2135,0.020217
1817.0772,0.020028
1818.9409,0.020204
1820.8045,0.020293
1822.6682,0.020263
1824.5319,0.020253
1826.3955,0.020045
1828.2592,0.019857
1830.1229,0.019994
1831.9865,0.019580
1833.8502,0.019342
1835.7139,0.019303
1837.5776,0.019246
1839.4412,0.019118
1841.3049,0.019169
1843.1686,0.019156
1845.0322,0.018891
1846.8959,0.018301
1848.7596,0.018448
1850.6232,0.018776
1852.4869,0.018859
1854.3506,0.018652
1856.2142,0.018619
1858.0779,0.018554
1859.9416,0.018565
1861.8052,0.018531
1863.6689,0.018608
1865.5326,0.018862
1867.3963,0.018793
1869.2599,0.018153
1871.1236,0.018019
1872.9873,0.018111
1874.8509,0.018220
1876.7146,0.018277
1878.5783,0.018123
1880.4419,0.017726
1882.3056,0.017701
1884.1693,0.017670
1886.0329,0.017506
1887.8966,0.017393
1889.7603,0.017320
1891.6240,0.016853
1893.4876,0.017108
1895.3513,0.017387
1897.2150,0.017387
1899.0786,0.017103
1900.9423,0.017090
1902.8060,0.016944
1904.6696,0.016862
1906.5333,0.016847
1908.3970,0.017035
1910.2606,0.017031
1912.1243,0.016841
1913.9880,0.016607
1915.8516,0.016714
1917.7153,0.016976
1919.5790,0.016641
1921.4427,0.016113
1923.3063,0.015444
1925.1700,0.015281
1927.0337,0.015976
1928.8973,0.015778
1930.7610,0.015455
1932.6247,0.015298
1934.4883,0.015248
1936.3520,0.014599
1938.2157,0.014202
1940.0793,0.013943
1941.9430,0.013639
1943.8067,0.012488
1945.6704,0.012810
1947.5340,0.012671
1949.3977,0.012612
1951.2614,0.012632
1953.1250,0.012425
1954.9887,0.011709
1956.8524,0.010753
1958.7160,0.009887
1960.5797,0.009666
1962.4434,0.008884
1964.3070,0.007468
1966.1707,0.006185
1968.0344,0.006230
1969.8980,0.006048
1971.7617,0.005831
1973.6254,0.004277
1975.4891,0.002623
1977.3527,0.002384
1979.2164,0.004096
1981.0801,0.006215
1982.9437,0.006790
1984.8074,0.006307
1986.6711,0.006901
1988.5347,0.007575
1990.3984,0.007887
1992.2621,0.006850
1994.1257,0.007413
1995.9894,0.007486
1997.8531,0.007477
1999.7167,0.007458
2001.5804,0.007831
2003.4441,0.007402
2005.3078,0.006458
2007.1714,0.004734
2009.0351,0.004666
2010.8988,0.004986
2012.7624,0.005245
2014.6261,0.004317
2016.4898,0.004118
2018.3534,0.004600
2020.2171,0.004481
2022.0808,0.002945
2023.9444,0.001651
2025.8081,-0.000275
2027.6718,0.001503
2029.5355,0.002256
2031.3991,0.003318
2033.2628,0.003735
2035.1265,0.003945
2036.9901,0.004316
2038.8538,0.004829
2040.7175,0.005263
2042.5811,0.005753
2044.4448,0.006532
2046.3085,0.007312
2048.1721,0.007120
2050.0358,0.008671
2051.8995,0.009968
2053.7631,0.009964
2055.6268,0.010294
2057.4905,0.012014
2059.3542,0.012512
2061.2178,0.012356
2063.0815,0.012232
2064.9452,0.012483
2066.8088,0.012915
2068.6725,0.013430
2070.5362,0.013568
2072.3998,0.013797
2074.2635,0.014198
2076.1272,0.014247
2077.9908,0.014170
2079.8545,0.014844
2081.7182,0.015070
2083.5819,0.015368
2085.4455,0.015951
2087.3092,0.015722
2089.1729,0.015353
2091.0365,0.015644
2092.9002,0.015691
2094.7639,0.015365
2096.6275,0.015075
2098.4912,0.015253
2100.3549,0.015563
2102.2185,0.016147
2104.0822,0.016425
2105.9459,0.016489
2107.8095,0.016349
2109.6732,0.016120
2111.5369,0.016354
2113.4006,0.016305
2115.2642,0.016280
2117.1279,0.016914
2118.9916,0.016834
2120.8552,0.016433
2122.7189,0.016449
2124.5826,0.016186
2126.4462,0.015394
2128.3099,0.015379
2130.1736,0.014771
2132.0372,0.013678
2133.9009,0.013414
2135.7646,0.013580
2137.6282,0.012833
2139.4919,0.012084
2141.3556,0.011521
2143.2193,0.010622
2145.0829,0.009992
2146.9466,0.009000
2148.8103,0.007605
2150.6739,0.007103
2152.5376,0.004855
2154.4013,0.002324
2156.2649,0.002198
2158.1286,0.003170
2159.9923,0.003329
2161.8559,0.004034
2163.7196,0.005677
2165.5833,0.007257
2167.4470,0.006470
2169.3106,0.006164
2171.1743,0.006729
2173.0380,0.007666
2174.9016,0.008035
2176.7653,0.008286
2178.6290,0.008801
2180.4926,0.009079
2182.3563,0.009073
2184.2200,0.009803
2186.0836,0.009590
2187.9473,0.010241
2189.8110,0.009864
2191.6746,0.010394
2193.5383,0.011679
2195.4020,0.011874
2197.2657,0.011751
2199.1293,0.012967
2200.9930,0.013980
2202.8567,0.013580
2204.7203,0.012819
2206.5840,0.012981
2208.4477,0.013127
2210.3113,0.013406
2212.1750,0.013462
2214.0387,0.013455
2215.9023,0.013446
2217.7660,0.014102
2219.6297,0.014660
2221.4934,0.015037
2223.3570,0.015301
2225.2207,0.015265
2227.0844,0.015069
2228.9480,0.015753
2230.8117,0.016254
2232.6754,0.016428
2234.5390,0.016142
2236.4027,0.016209
2238.2664,0.016501
2240.1300,0.016632
2241.9937,0.017319
2243.8574,0.018248
2245.7210,0.017836
2247.5847,0.017704
2249.4484,0.018170
2251.3121,0.018089
2253.1757,0.017767
2255.0394,0.017811
2256.9031,0.018284
2258.7667,0.018986
2260.6304,0.019024
2262.4941,0.019229
2264.3577,0.019371
2266.2214,0.019382
2268.0851,0.019710
2269.9487,0.020204
2271.8124,0.020384
2273.6761,0.020413
2275.5397,0.020559
2277.4034,0.020919
2279.2671,0.021197
2281.1308,0.021842
2282.9944,0.022863
2284.8581,0.023143
2286.7218,0.022909
2288.5854,0.022801
2290.4491,0.022730
2292.3128,0.022949
2294.1764,0.023201
2296.0401,0.023439
2297.9038,0.023409
2299.7674,0.023539
2301.6311,0.023798
2303.4948,0.023695
2305.3585,0.023759
2307.2221,0.023831
2309.0858,0.024024
2310.9495,0.024201
2312.8131,0.023973
2314.6768,0.023669
2316.5405,0.023936
2318.4041,0.024085
2320.2678,0.024086
2322.1315,0.024245
2323.9951,0.024664
2325.8588,0.024735
2327.7225,0.023882
2329.5861,0.023327
2331.4498,0.023381
2333.3135,0.023487
2335.1772,0.023406
2337.0408,0.023216
2338.9045,0.023131
2340.7682,0.023414
2342.6318,0.023829
2344.4955,0.023977
2346.3592,0.023720
2348.2228,0.023369
2350.0865,0.023141
2351.9502,0.023036
2353.8138,0.023109
2355.6775,0.023162
2357.5412,0.023097
2359.4049,0.022844
2361.2685,0.022533
2363.1322,0.022361
2364.9959,0.022551
2366.8595,0.022978
2368.7232,0.023382
2370.5869,0.023473
2372.4505,0.023999
2374.3142,0.024298
2376.1779,0.024166
2378.0415,0.024157
2379.9052,0.024061
2381.7689,0.023904
2383.6325,0.023863
2385.4962,0.024034
2387.3599,0.024266
2389.2236,0.024325
2391.0872,0.023959
2392.9509,0.023789
2394.8146,0.024093
2396.6782,0.024394
2398.5419,0.024200
2400.4056,0.023982
2402.2692,0.024191
2404.1329,0.024271
2405.9966,0.024347
2407.8602,0.024388
2409.7239,0.024242
2411.5876,0.024196
2413.4512,0.024324
2415.3149,0.024364
2417.1786,0.024420
2419.0423,0.024461
2420.9059,0.024417
2422.7696,0.024506
2424.6333,0.024854
2426.4969,0.025054
2428.3606,0.025012
2430.2243,0.024823
2432.0879,0.024746
2433.9516,0.024972
2435.8153,0.024619
2437.6789,0.024487
2439.5426,0.025042
2441.4063,0.025337
2443.2700,0.025079
2445.1336,0.024909
2446.9973,0.024960
2448.8610,0.025164
2450.7246,0.024902
2452.5883,0.024732
2454.4520,0.024818
2456.3156,0.024716
2458.1793,0.024723
2460.0430,0.025117
2461.9066,0.025115
2463.7703,0.024955
2465.6340,0.024989
2467.4976,0.024996
2469.3613,0.024977
2471.2250,0.024786
2473.0887,0.024770
2474.9523,0.024971
2476.8160,0.025055
2478.6797,0.024951
2480.5433,0.025104
2482.4070,0.025466
2484.2707,0.025514
2486.1343,0.025247
2487.9980,0.025462
2489.8617,0.025760
2491.7253,0.025583
2493.5890,0.025632
2495.4527,0.025560
2497.3164,0.025466
2499.1800,0.025857
2501.0437,0.025805
2502.9074,0.025787
2504.7710,0.026185
2506.6347,0.026224
2508.4984,0.026361
2510.3620,0.026447
2512.2257,0.026451
2514.0894,0.026285
2515.9530,0.026386
2517.8167,0.026367
2519.6804,0.026088
2521.5440,0.026134
2523.4077,0.026548
2525.2714,0.026691
2527.1351,0.026758
