Wavenumber,Intensity
650.4205,0.213828
652.2841,0.225122
654.1478,0.239962
656.0115,0.256022
657.8751,0.278354
659.7388,0.301627
661.6025,0.324777
663.4661,0.346098
665.3298,0.364878
667.1935,0.376917
669.0571,0.367028
670.9208,0.339190
672.7845,0.310958
674.6481,0.282756
676.5118,0.262850
678.3755,0.247911
680.2392,0.235977
682.1028,0.224397
683.9665,0.211162
685.8302,0.196384
687.6938,0.182449
689.5575,0.169567
691.4212,0.158992
693.2848,0.148513
695.1485,0.139252
697.0122,0.132617
698.8758,0.129257
700.7395,0.126952
702.6032,0.125175
704.4669,0.123905
706.3305,0.121519
708.1942,0.118264
710.0579,0.115327
711.9215,0.111774
713.7852,0.107614
715.6489,0.104524
717.5125,0.102072
719.3762,0.099271
721.2399,0.097490
723.1035,0.095866
724.9672,0.093410
726.8309,0.091150
728.6945,0.089831
730.5582,0.089315
732.4219,0.088596
734.2856,0.087221
736.1492,0.086448
738.0129,0.086467
739.8766,0.087749
741.7402,0.090128
743.6039,0.092367
745.4676,0.094231
747.3312,0.095329
749.1949,0.095925
751.0586,0.096595
752.9222,0.096852
754.7859,0.097133
756.6496,0.098031
758.5132,0.099016
760.3769,0.099516
762.2406,0.100397
764.1043,0.101353
765.9679,0.102300
767.8316,0.103434
769.6953,0.104278
771.5589,0.105064
773.4226,0.106107
775.2863,0.107414
777.1499,0.109311
779.0136,0.111682
780.8773,0.113759
782.7409,0.114595
784.6046,0.114767
786.4683,0.115857
788.3320,0.117689
790.1956,0.119294
792.0593,0.120833
793.9230,0.122147
795.7866,0.123968
797.6503,0.126108
799.5140,0.128087
801.3776,0.130181
803.2413,0.132139
805.1050,0.133449
806.9686,0.134693
808.8323,0.135314
810.6960,0.135405
812.5596,0.135882
814.4233,0.136503
816.2870,0.136918
818.1507,0.137480
820.0143,0.138061
821.8780,0.139074
823.7417,0.140816
825.6053,0.143609
827.4690,0.147042
829.3327,0.149726
831.1963,0.149042
833.0600,0.145435
834.9237,0.142643
836.7873,0.142271
838.6510,0.143501
840.5147,0.145586
842.3784,0.147967
844.2420,0.150388
846.1057,0.152638
847.9694,0.155075
849.8330,0.157853
851.6967,0.160642
853.5604,0.163237
855.4240,0.165943
857.2877,0.168695
859.1514,0.171450
861.0150,0.173618
862.8787,0.175738
864.7424,0.178218
866.6060,0.180850
868.4697,0.183354
870.3334,0.185997
872.1971,0.188771
874.0607,0.192016
875.9244,0.195527
877.7881,0.198891
879.6517,0.202529
881.5154,0.206496
883.3791,0.209956
885.2427,0.213032
887.1064,0.216054
888.9701,0.218835
890.8337,0.221072
892.6974,0.223330
894.5611,0.225996
896.4247,0.228994
898.2884,0.232090
900.1521,0.235742
902.0158,0.240151
903.8794,0.245117
905.7431,0.250374
907.6068,0.256162
909.4704,0.262249
911.3341,0.269200
913.1978,0.276801
915.0614,0.281976
916.9251,0.280433
918.7888,0.274680
920.6524,0.271206
922.5161,0.271513
924.3798,0.273654
926.2435,0.276800
928.1071,0.280526
929.9708,0.284216
931.8345,0.287607
933.6981,0.291109
935.5618,0.294533
937.4255,0.297901
939.2891,0.301071
941.1528,0.304300
943.0165,0.307532
944.8801,0.310643
946.7438,0.313705
948.6075,0.317017
950.4711,0.320423
952.3348,0.324131
954.1985,0.328207
956.0622,0.332237
957.9258,0.336090
959.7895,0.340200
961.6532,0.344246
963.5168,0.348572
965.3805,0.353444
967.2442,0.358743
969.1078,0.364103
970.9715,0.369434
972.8352,0.375319
974.6988,0.382531
976.5625,0.391041
978.4262,0.401901
980.2899,0.414300
982.1535,0.418427
984.0172,0.406828
985.8809,0.393309
987.7445,0.389957
989.6082,0.392738
991.4719,0.396173
993.3355,0.399179
995.1992,0.401454
997.0629,0.403411
998.9265,0.405036
1000.7902,0.406124
1002.6539,0.406745
1004.5175,0.406764
1006.3812,0.405638
1008.2449,0.402895
1010.1086,0.397561
1011.9722,0.389384
1013.8359,0.378730
1015.6996,0.366006
1017.5632,0.351439
1019.4269,0.335616
1021.2906,0.319139
1023.1542,0.302880
1025.0179,0.287280
1026.8816,0.272622
1028.7452,0.259086
1030.6089,0.246402
1032.4726,0.234266
1034.3362,0.222701
1036.1999,0.211766
1038.0636,0.201451
1039.9273,0.191681
1041.7909,0.182536
1043.6546,0.174012
1045.5183,0.166093
1047.3819,0.158667
1049.2456,0.151677
1051.1093,0.145044
1052.9729,0.139210
1054.8366,0.135053
1056.7003,0.132696
1058.5639,0.131255
1060.4276,0.129991
1062.2913,0.128841
1064.1550,0.127814
1066.0186,0.126887
1067.8823,0.126197
1069.7460,0.125683
1071.6096,0.125233
1073.4733,0.124724
1075.3370,0.124013
1077.2006,0.123059
1079.0643,0.122001
1080.9280,0.120781
1082.7916,0.119496
1084.6553,0.118429
1086.5190,0.117610
1088.3826,0.117026
1090.2463,0.116738
1092.1100,0.116744
1093.9737,0.116971
1095.8373,0.117356
1097.7010,0.117941
1099.5647,0.118739
1101.4283,0.119501
1103.2920,0.119961
1105.1557,0.119861
1107.0193,0.118679
1108.8830,0.115666
1110.7467,0.110818
1112.6103,0.105174
1114.4740,0.099500
1116.3377,0.094178
1118.2014,0.089680
1120.0650,0.086082
1121.9287,0.083287
1123.7924,0.081091
1125.6560,0.079032
1127.5197,0.076886
1129.3834,0.074803
1131.2470,0.072834
1133.1107,0.070880
1134.9744,0.069044
1136.8380,0.067531
1138.7017,0.066273
1140.5654,0.064952
1142.4290,0.063544
1144.2927,0.062284
1146.1564,0.061044
1148.0201,0.059779
1149.8837,0.058660
1151.7474,0.057585
1153.6111,0.056567
1155.4747,0.055688
1157.3384,0.054921
1159.2021,0.054311
1161.0657,0.053794
1162.9294,0.053372
1164.7931,0.053213
1166.6567,0.053242
1168.5204,0.053496
1170.3841,0.054020
1172.2477,0.054312
1174.1114,0.053648
1175.9751,0.051910
1177.8388,0.049836
1179.7024,0.048161
1181.5661,0.047142
1183.4298,0.046663
1185.2934,0.046508
1187.1571,0.046550
1189.0208,0.046673
1190.8844,0.046817
1192.7481,0.046974
1194.6118,0.047140
1196.4754,0.047338
1198.3391,0.047584
1200.2028,0.047919
1202.0665,0.048251
1203.9301,0.048588
1205.7938,0.048989
1207.6575,0.049298
1209.5211,0.049545
1211.3848,0.049838
1213.2485,0.050087
1215.1121,0.050277
1216.9758,0.050536
1218.8395,0.050743
1220.7031,0.050798
1222.5668,0.050872
1224.4305,0.051011
1226.2941,0.051116
1228.1578,0.051170
1230.0215,0.051222
1231.8852,0.051301
1233.7488,0.051398
1235.6125,0.051497
1237.4762,0.051607
1239.3398,0.051653
1241.2035,0.051697
1243.0672,0.051808
1244.9308,0.051878
1246.7945,0.051943
1248.6582,0.051993
1250.5218,0.052061
1252.3855,0.052296
1254.2492,0.052541
1256.1129,0.052679
1257.9765,0.052895
1259.8402,0.053284
1261.7039,0.053678
1263.5675,0.054007
1265.4312,0.054311
1267.2949,0.054419
1269.1585,0.054394
1271.0222,0.054448
1272.8859,0.054565
1274.7495,0.054791
1276.6132,0.055182
1278.4769,0.055628
1280.3405,0.056145
1282.2042,0.056828
1284.0679,0.057626
1285.9316,0.058496
1287.7952,0.059477
1289.6589,0.060625
1291.5226,0.061958
1293.3862,0.063446
1295.2499,0.065202
1297.1136,0.067322
1298.9772,0.069769
1300.8409,0.072700
1302.7046,0.075968
1304.5682,0.078460
1306.4319,0.078549
1308.2956,0.074878
1310.1592,0.067606
1312.0229,0.059779
1313.8866,0.054612
1315.7503,0.052675
1317.6139,0.052736
1319.4776,0.053736
1321.3413,0.054930
1323.2049,0.056135
1325.0686,0.057398
1326.9323,0.058758
1328.7959,0.060114
1330.6596,0.061229
1332.5233,0.062160
1334.3869,0.062959
1336.2506,0.063644
1338.1143,0.064652
1339.9780,0.065988
1341.8416,0.066576
1343.7053,0.066713
1345.5690,0.067315
1347.4326,0.068098
1349.2963,0.068905
1351.1600,0.069622
1353.0236,0.070297
1354.8873,0.071203
1356.7510,0.071998
1358.6146,0.072495
1360.4783,0.073348
1362.3420,0.075054
1364.2056,0.076439
1366.0693,0.076810
1367.9330,0.077666
1369.7967,0.078757
1371.6603,0.079635
1373.5240,0.081277
1375.3877,0.083047
1377.2513,0.083960
1379.1150,0.085415
1380.9787,0.087308
1382.8423,0.089113
1384.7060,0.091175
1386.5697,0.094310
1388.4333,0.097802
1390.2970,0.099463
1392.1607,0.100524
1394.0244,0.101351
1395.8880,0.100116
1397.7517,0.097162
1399.6154,0.093568
1401.4790,0.089709
1403.3427,0.086538
1405.2064,0.082470
1407.0700,0.076279
1408.9337,0.069372
1410.7974,0.062621
1412.6610,0.057362
1414.5247,0.054356
1416.3884,0.053670
1418.2520,0.055708
1420.1157,0.059339
1421.9794,0.060734
1423.8431,0.060196
1425.7067,0.057063
1427.5704,0.053143
1429.4341,0.050693
1431.2977,0.049512
1433.1614,0.049081
1435.0251,0.049565
1436.8887,0.051249
1438.7524,0.051969
1440.6161,0.051782
1442.4797,0.052175
1444.3434,0.052615
1446.2071,0.053008
1448.0707,0.053209
1449.9344,0.052390
1451.7981,0.050961
1453.6618,0.049577
1455.5254,0.049382
1457.3891,0.051678
1459.2528,0.051977
1461.1164,0.050760
1462.9801,0.050586
1464.8438,0.051116
1466.7074,0.050698
1468.5711,0.049360
1470.4348,0.048575
1472.2984,0.049008
1474.1621,0.049432
1476.0258,0.048870
1477.8895,0.048462
1479.7531,0.048111
1481.6168,0.048155
1483.4805,0.047971
1485.3441,0.047649
1487.2078,0.047841
1489.0715,0.048715
1490.9351,0.049231
1492.7988,0.048499
1494.6625,0.048133
1496.5261,0.049275
1498.3898,0.050370
1500.2535,0.050161
1502.1171,0.049364
1503.9808,0.048894
1505.8445,0.050425
1507.7082,0.053919
1509.5718,0.052982
1511.4355,0.052245
1513.2992,0.052202
1515.1628,0.052545
1517.0265,0.053388
1518.8902,0.053523
1520.7538,0.054087
1522.6175,0.055570
1524.4812,0.055296
1526.3448,0.055674
1528.2085,0.055942
1530.0722,0.055700
1531.9359,0.056309
1533.7995,0.057725
1535.6632,0.057177
1537.5269,0.056479
1539.3905,0.058406
1541.2542,0.061579
1543.1179,0.061598
1544.9815,0.061978
1546.8452,0.062109
1548.7089,0.062471
1550.5725,0.063651
1552.4362,0.064343
1554.2999,0.064734
1556.1635,0.065479
1558.0272,0.068350
1559.8909,0.074240
1561.7546,0.071872
1563.6182,0.071053
1565.4819,0.071946
1567.3456,0.072966
1569.2092,0.074731
1571.0729,0.076239
1572.9366,0.076137
1574.8002,0.077643
1576.6639,0.081034
1578.5276,0.081982
1580.3912,0.082017
1582.2549,0.083128
1584.1186,0.084116
1585.9822,0.085083
1587.8459,0.085804
1589.7096,0.086251
1591.5733,0.086433
1593.4369,0.086602
1595.3006,0.086462
1597.1643,0.086101
1599.0279,0.085511
1600.8916,0.084920
1602.7553,0.084313
1604.6189,0.083546
1606.4826,0.082713
1608.3463,0.082055
1610.2099,0.081247
1612.0736,0.080148
1613.9373,0.078883
1615.8010,0.078016
1617.6646,0.075721
1619.5283,0.072121
1621.3920,0.070193
1623.2556,0.068448
1625.1193,0.065333
1626.9830,0.062507
1628.8466,0.059298
1630.7103,0.055281
1632.5740,0.052032
1634.4376,0.049690
1636.3013,0.047446
1638.1650,0.044720
1640.0286,0.043220
1641.8923,0.042294
1643.7560,0.042151
1645.6197,0.043007
1647.4833,0.044144
1649.3470,0.043912
1651.2107,0.044541
1653.0743,0.048106
1654.9380,0.049906
1656.8017,0.048807
1658.6653,0.049186
1660.5290,0.049754
1662.3927,0.050188
1664.2563,0.049707
1666.1200,0.048712
1667.9837,0.048397
1669.8474,0.048565
1671.7110,0.047944
1673.5747,0.047812
1675.4384,0.048811
1677.3020,0.049396
1679.1657,0.049548
1681.0294,0.050801
1682.8930,0.052972
1684.7567,0.056399
1686.6204,0.056714
1688.4840,0.056114
1690.3477,0.055729
1692.2114,0.054686
1694.0750,0.053557
1695.9387,0.052485
1697.8024,0.050644
1699.6661,0.049757
1701.5297,0.047315
1703.3934,0.044206
1705.2571,0.041569
1707.1207,0.037879
1708.9844,0.034791
1710.8481,0.032416
1712.7117,0.030256
1714.5754,0.029010
1716.4391,0.028461
1718.3027,0.028088
1720.1664,0.026951
1722.0301,0.026269
1723.8937,0.025558
1725.7574,0.024540
1727.6211,0.023622
1729.4848,0.022877
1731.3484,0.022250
1733.2121,0.022252
1735.0758,0.022040
1736.9394,0.021040
1738.8031,0.020740
1740.6668,0.020961
1742.5304,0.020827
1744.3941,0.020507
1746.2578,0.020130
1748.1214,0.020298
1749.9851,0.020337
1751.8488,0.020037
1753.7125,0.019714
1755.5761,0.019631
1757.4398,0.019689
1759.3035,0.019611
1761.1671,0.019586
1763.0308,0.019679
1764.8945,0.019266
1766.7581,0.019064
1768.6218,0.019102
1770.4855,0.019032
1772.3491,0.019219
1774.2128,0.019175
1776.0765,0.018792
1777.9401,0.018827
1779.8038,0.018840
1781.6675,0.018979
1783.5312,0.018874
1785.3948,0.018919
1787.2585,0.018890
1789.1222,0.018987
1790.9858,0.019192
1792.8495,0.019295
1794.7132,0.019208
1796.5768,0.019151
1798.4405,0.019114
1800.3042,0.019310
1802.1678,0.019432
1804.0315,0.019365
1805.8952,0.019331
1807.7589,0.019404
1809.6225,0.019454
1811.4862,0.019693
1813.3499,0.019769
1815.2135,0.019602
1817.0772,0.019514
1818.9409,0.019633
1820.8045,0.019492
1822.6682,0.019460
1824.5319,0.019632
1826.3955,0.019466
1828.2592,0.019090
1830.1229,0.019196
1831.9865,0.019012
1833.8502,0.018780
1835.7139,0.018986
1837.5776,0.019065
1839.4412,0.018692
1841.3049,0.018480
1843.1686,0.018348
1845.0322,0.018143
1846.8959,0.018191
1848.7596,0.018582
1850.6232,0.018471
1852.4869,0.018362
1854.3506,0.018417
1856.2142,0.018416
1858.0779,0.018435
1859.9416,0.018427
1861.8052,0.018454
1863.6689,0.018296
1865.5326,0.018166
1867.3963,0.018442
1869.2599,0.018110
1871.1236,0.017480
1872.9873,0.017627
1874.8509,0.017912
1876.7146,0.017877
1878.5783,0.017935
1880.4419,0.017793
1882.3056,0.017596
1884.1693,0.017338
1886.0329,0.017383
1887.8966,0.017494
1889.7603,0.017455
1891.6240,0.017318
1893.4876,0.017362
1895.3513,0.017331
1897.2150,0.017204
1899.0786,0.017013
1900.9423,0.016953
1902.8060,0.017132
1904.6696,0.017415
1906.5333,0.017427
1908.3970,0.017272
1910.2606,0.017259
1912.1243,0.016962
1913.9880,0.017020
1915.8516,0.017293
1917.7153,0.016668
1919.5790,0.016245
1921.4427,0.016043
1923.3063,0.015933
1925.1700,0.016062
1927.0337,0.016205
1928.8973,0.015793
1930.7610,0.015675
1932.6247,0.015501
1934.4883,0.015300
1936.3520,0.015126
1938.2157,0.015316
1940.0793,0.015083
1941.9430,0.014518
1943.8067,0.013484
1945.6704,0.012654
1947.5340,0.012344
1949.3977,0.012690
1951.2614,0.012641
1953.1250,0.012500
1954.9887,0.012025
1956.8524,0.011589
1958.7160,0.010125
1960.5797,0.008996
1962.4434,0.009134
1964.3070,0.009880
1966.1707,0.008846
1968.0344,0.007678
1969.8980,0.006899
1971.7617,0.006741
1973.6254,0.006168
1975.4891,0.005234
1977.3527,0.004845
1979.2164,0.006284
1981.0801,0.006288
1982.9437,0.006863
1984.8074,0.008468
1986.6711,0.009226
1988.5347,0.008713
1990.3984,0.008485
1992.2621,0.007903
1994.1257,0.008038
1995.9894,0.008234
1997.8531,0.008179
1999.7167,0.008443
2001.5804,0.008990
2003.4441,0.008246
2005.3078,0.007860
2007.1714,0.007041
2009.0351,0.006073
2010.8988,0.004781
2012.7624,0.004990
2014.6261,0.005844
2016.4898,0.006129
2018.3534,0.004400
2020.2171,0.003618
2022.0808,0.003495
2023.9444,0.003343
2025.8081,0.003565
2027.6718,0.004086
2029.5355,0.004850
2031.3991,0.006098
2033.2628,0.005336
2035.1265,0.005139
2036.9901,0.005103
2038.8538,0.005417
2040.7175,0.005894
2042.5811,0.007253
2044.4448,0.007894
2046.3085,0.008535
2048.1721,0.008853
2050.0358,0.010932
2051.8995,0.011866
2053.7631,0.011552
2055.6268,0.011593
2057.4905,0.012505
2059.3542,0.012598
2061.2178,0.013150
2063.0815,0.013986
2064.9452,0.014383
2066.8088,0.014174
2068.6725,0.014006
2070.5362,0.013746
2072.3998,0.014303
2074.2635,0.014957
2076.1272,0.015031
2077.9908,0.014782
2079.8545,0.014912
2081.7182,0.015666
2083.5819,0.016187
2085.4455,0.016535
2087.3092,0.016926
2089.1729,0.016786
2091.0365,0.016707
2092.9002,0.016438
2094.7639,0.016161
2096.6275,0.016193
2098.4912,0.016374
2100.3549,0.016229
2102.2185,0.016531
2104.0822,0.016652
2105.9459,0.016804
2107.8095,0.016697
2109.6732,0.017204
2111.5369,0.017795
2113.4006,0.017928
2115.2642,0.017079
2117.1279,0.016980
2118.9916,0.017467
2120.8552,0.017171
2122.7189,0.016967
2124.5826,0.017554
2126.4462,0.017045
2128.3099,0.016081
2130.1736,0.014932
2132.0372,0.014698
2133.9009,0.014406
2135.7646,0.013668
2137.6282,0.013744
2139.4919,0.013853
2141.3556,0.012594
2143.2193,0.011057
2145.0829,0.010609
2146.9466,0.010928
2148.8103,0.011707
2150.6739,0.012096
2152.5376,0.009107
2154.4013,0.005854
2156.2649,0.004710
2158.1286,0.006102
2159.9923,0.006118
2161.8559,0.005841
2163.7196,0.006171
2165.5833,0.007752
2167.4470,0.009293
2169.3106,0.009368
2171.1743,0.009844
2173.0380,0.010043
2174.9016,0.010512
2176.7653,0.010444
2178.6290,0.009550
2180.4926,0.009691
2182.3563,0.010609
2184.2200,0.011509
2186.0836,0.010739
2187.9473,0.010755
2189.8110,0.010913
2191.6746,0.011442
2193.5383,0.011492
2195.4020,0.012268
2197.2657,0.012688
2199.1293,0.013074
2200.9930,0.013974
2202.8567,0.014158
2204.7203,0.013907
2206.5840,0.013949
2208.4477,0.014180
2210.3113,0.014797
2212.1750,0.014779
2214.0387,0.015487
2215.9023,0.015017
2217.7660,0.014649
2219.6297,0.015465
2221.4934,0.016600
2223.3570,0.016734
2225.2207,0.016482
2227.0844,0.016320
2228.9480,0.016807
2230.8117,0.017296
2232.6754,0.016949
2234.5390,0.016724
2236.4027,0.017216
2238.2664,0.017468
2240.1300,0.017606
2241.9937,0.018225
2243.8574,0.018811
2245.7210,0.018797
2247.5847,0.018732
2249.4484,0.018263
2251.3121,0.018000
2253.1757,0.018305
2255.0394,0.018460
2256.9031,0.018137
2258.7667,0.018875
2260.6304,0.019650
2262.4941,0.020196
2264.3577,0.020267
2266.2214,0.019532
2268.0851,0.019616
2269.9487,0.020638
2271.8124,0.021566
2273.6761,0.021952
2275.5397,0.021896
2277.4034,0.021803
2279.2671,0.022029
2281.1308,0.022474
2282.9944,0.022606
2284.8581,0.022622
2286.7218,0.022829
2288.5854,0.023306
2290.4491,0.023574
2292.3128,0.023482
2294.1764,0.023376
2296.0401,0.023462
2297.9038,0.023437
2299.7674,0.023751
2301.6311,0.023902
2303.4948,0.023489
2305.3585,0.023339
2307.2221,0.023724
2309.0858,0.023850
2310.9495,0.023749
2312.8131,0.023890
2314.6768,0.024196
2316.5405,0.024330
2318.4041,0.024285
2320.2678,0.024324
2322.1315,0.024630
2323.9951,0.024853
2325.8588,0.024548
2327.7225,0.023905
2329.5861,0.023536
2331.4498,0.023652
2333.3135,0.023862
2335.1772,0.023814
2337.0408,0.023638
2338.9045,0.023543
2340.7682,0.023395
2342.6318,0.023504
2344.4955,0.023816
2346.3592,0.023496
2348.2228,0.023176
2350.0865,0.023187
2351.9502,0.023044
2353.8138,0.022831
2355.6775,0.023016
2357.5412,0.023235
2359.4049,0.023130
2361.2685,0.023112
2363.1322,0.023197
2364.9959,0.023027
2366.8595,0.023410
2368.7232,0.023788
2370.5869,0.023883
2372.4505,0.024107
2374.3142,0.024258
2376.1779,0.024440
2378.0415,0.024522
2379.9052,0.024308
2381.7689,0.024176
2383.6325,0.024230
2385.4962,0.024178
2387.3599,0.024064
2389.2236,0.024231
2391.0872,0.024275
2392.9509,0.024336
2394.8146,0.024519
2396.6782,0.024659
2398.5419,0.024547
2400.4056,0.024335
2402.2692,0.024526
2404.1329,0.024682
2405.9966,0.024707
2407.8602,0.024858
2409.7239,0.025023
2411.5876,0.024891
2413.4512,0.024451
2415.3149,0.024468
2417.1786,0.024676
2419.0423,0.024803
2420.9059,0.024836
2422.7696,0.024780
2424.6333,0.024712
2426.4969,0.024752
2428.3606,0.025005
2430.2243,0.025314
2432.0879,0.025078
2433.9516,0.024630
2435.8153,0.024613
2437.6789,0.024522
2439.5426,0.024844
2441.4063,0.025371
2443.2700,0.025087
2445.1336,0.024729
2446.9973,0.025269
2448.8610,0.025211
2450.7246,0.024896
2452.5883,0.025101
2454.4520,0.025177
2456.3156,0.024763
2458.1793,0.024666
2460.0430,0.024786
2461.9066,0.024845
2463.7703,0.024984
2465.6340,0.025075
2467.4976,0.025024
2469.3613,0.025214
2471.2250,0.025373
2473.0887,0.025225
2474.9523,0.025206
2476.8160,0.025355
2478.6797,0.025335
2480.5433,0.025063
2482.4070,0.024918
2484.2707,0.025010
2486.1343,0.025088
2487.9980,0.025247
2489.8617,0.025420
2491.7253,0.025312
2493.5890,0.025213
2495.4527,0.025547
2497.3164,0.026023
2499.1800,0.026157
2501.0437,0.026040
2502.9074,0.026077
2504.7710,0.026046
2506.6347,0.025897
2508.4984,0.026144
2510.3620,0.026058
2512.2257,0.025936
2514.0894,0.026167
2515.9530,0.026433
2517.8167,0.026352
2519.6804,0.026125
2521.5440,0.026031
2523.4077,0.026287
2525.2714,0.026132
2527.1351,0.026259
