Wavenumber,Intensity
650.4205,0.169623
652.2841,0.168719
654.1478,0.168910
656.0115,0.168630
657.8751,0.171381
659.7388,0.173435
661.6025,0.176741
663.4661,0.179755
665.3298,0.182428
667.1935,0.185382
669.0571,0.188026
670.9208,0.182076
672.7845,0.175332
674.6481,0.168729
676.5118,0.165406
678.3755,0.161846
680.2392,0.158961
682.1028,0.157241
683.9665,0.157176
685.8302,0.154669
687.6938,0.153352
689.5575,0.152212
691.4212,0.150434
693.2848,0.148645
695.1485,0.147492
697.0122,0.145720
698.8758,0.145744
700.7395,0.146382
702.6032,0.147322
704.4669,0.146788
706.3305,0.144417
708.1942,0.139865
710.0579,0.135570
711.9215,0.131441
713.7852,0.127510
715.6489,0.123989
717.5125,0.120847
719.3762,0.118117
721.2399,0.116078
723.1035,0.114281
724.9672,0.112465
726.8309,0.110658
728.6945,0.109445
730.5582,0.108265
732.4219,0.107298
734.2856,0.105782
736.1492,0.102410
738.0129,0.097205
739.8766,0.092847
741.7402,0.089810
743.6039,0.087544
745.4676,0.084515
747.3312,0.080553
749.1949,0.076830
751.0586,0.074196
752.9222,0.072637
754.7859,0.072294
756.6496,0.072499
758.5132,0.072028
760.3769,0.071418
762.2406,0.071465
764.1043,0.071286
765.9679,0.070950
767.8316,0.071020
769.6953,0.071489
771.5589,0.071494
773.4226,0.071542
775.2863,0.072338
777.1499,0.073658
779.0136,0.074879
780.8773,0.076274
782.7409,0.077447
784.6046,0.078489
786.4683,0.079307
788.3320,0.080490
790.1956,0.082149
792.0593,0.083902
793.9230,0.085646
795.7866,0.087225
797.6503,0.088546
799.5140,0.089993
801.3776,0.090785
803.2413,0.091428
805.1050,0.091769
806.9686,0.091230
808.8323,0.090008
810.6960,0.088892
812.5596,0.087540
814.4233,0.085678
816.2870,0.083907
818.1507,0.082341
820.0143,0.080816
821.8780,0.079753
823.7417,0.079422
825.6053,0.080069
827.4690,0.081932
829.3327,0.083184
831.1963,0.080177
833.0600,0.073048
834.9237,0.066774
836.7873,0.063986
838.6510,0.063307
840.5147,0.063505
842.3784,0.064631
844.2420,0.066789
846.1057,0.068789
847.9694,0.068354
849.8330,0.065554
851.6967,0.063314
853.5604,0.062821
855.4240,0.063140
857.2877,0.063437
859.1514,0.064000
861.0150,0.064638
862.8787,0.065042
864.7424,0.065408
866.6060,0.066148
868.4697,0.066765
870.3334,0.067157
872.1971,0.067812
874.0607,0.068738
875.9244,0.069701
877.7881,0.070823
879.6517,0.072170
881.5154,0.073719
883.3791,0.075568
885.2427,0.077597
887.1064,0.080079
888.9701,0.083175
890.8337,0.086056
892.6974,0.087376
894.5611,0.085508
896.4247,0.082124
898.2884,0.080300
900.1521,0.080759
902.0158,0.082706
903.8794,0.085571
905.7431,0.089089
907.6068,0.093352
909.4704,0.097973
911.3341,0.102905
913.1978,0.108168
915.0614,0.110611
916.9251,0.105275
918.7888,0.095399
920.6524,0.088267
922.5161,0.085749
924.3798,0.085519
926.2435,0.086130
928.1071,0.087257
929.9708,0.088498
931.8345,0.089689
933.6981,0.091020
935.5618,0.092272
937.4255,0.093537
939.2891,0.094743
941.1528,0.096116
943.0165,0.097706
944.8801,0.099316
946.7438,0.100970
948.6075,0.102922
950.4711,0.104984
952.3348,0.107163
954.1985,0.109777
956.0622,0.112567
957.9258,0.115118
959.7895,0.117199
961.6532,0.117978
963.5168,0.117577
965.3805,0.117238
967.2442,0.118047
969.1078,0.120172
970.9715,0.123033
972.8352,0.126464
974.6988,0.131703
976.5625,0.139940
978.4262,0.152708
980.2899,0.169516
982.1535,0.177136
984.0172,0.161613
985.8809,0.140383
987.7445,0.131494
989.6082,0.131397
991.4719,0.133195
993.3355,0.135126
995.1992,0.137223
997.0629,0.139331
998.9265,0.141388
1000.7902,0.143559
1002.6539,0.145743
1004.5175,0.147945
1006.3812,0.150182
1008.2449,0.152306
1010.1086,0.153936
1011.9722,0.155084
1013.8359,0.155778
1015.6996,0.155797
1017.5632,0.155145
1019.4269,0.154134
1021.2906,0.152701
1023.1542,0.151058
1025.0179,0.149386
1026.8816,0.147957
1028.7452,0.146964
1030.6089,0.146366
1032.4726,0.145889
1034.3362,0.144839
1036.1999,0.142102
1038.0636,0.137309
1039.9273,0.132171
1041.7909,0.128997
1043.6546,0.128126
1045.5183,0.127635
1047.3819,0.125263
1049.2456,0.120330
1051.1093,0.112930
1052.9729,0.104426
1054.8366,0.097455
1056.7003,0.093271
1058.5639,0.091320
1060.4276,0.090833
1062.2913,0.090812
1064.1550,0.091002
1066.0186,0.091794
1067.8823,0.092963
1069.7460,0.094428
1071.6096,0.096259
1073.4733,0.098097
1075.3370,0.099771
1077.2006,0.101359
1079.0643,0.102927
1080.9280,0.104554
1082.7916,0.106362
1084.6553,0.108409
1086.5190,0.110688
1088.3826,0.113155
1090.2463,0.116172
1092.1100,0.119746
1093.9737,0.123673
1095.8373,0.127780
1097.7010,0.131860
1099.5647,0.135480
1101.4283,0.138304
1103.2920,0.140291
1105.1557,0.141558
1107.0193,0.141207
1108.8830,0.137772
1110.7467,0.130757
1112.6103,0.121278
1114.4740,0.110989
1116.3377,0.101312
1118.2014,0.093104
1120.0650,0.086863
1121.9287,0.082685
1123.7924,0.080043
1125.6560,0.078194
1127.5197,0.076557
1129.3834,0.074964
1131.2470,0.073540
1133.1107,0.072378
1134.9744,0.071609
1136.8380,0.071225
1138.7017,0.071112
1140.5654,0.071168
1142.4290,0.071514
1144.2927,0.072085
1146.1564,0.072519
1148.0201,0.072879
1149.8837,0.073378
1151.7474,0.073825
1153.6111,0.074338
1155.4747,0.075057
1157.3384,0.075860
1159.2021,0.076680
1161.0657,0.077595
1162.9294,0.078820
1164.7931,0.080461
1166.6567,0.082521
1168.5204,0.084993
1170.3841,0.087495
1172.2477,0.089227
1174.1114,0.089073
1175.9751,0.086698
1177.8388,0.083273
1179.7024,0.080266
1181.5661,0.078319
1183.4298,0.077231
1185.2934,0.076570
1187.1571,0.076031
1189.0208,0.075473
1190.8844,0.074947
1192.7481,0.074431
1194.6118,0.073968
1196.4754,0.073771
1198.3391,0.073790
1200.2028,0.073957
1202.0665,0.074166
1203.9301,0.074231
1205.7938,0.074034
1207.6575,0.073673
1209.5211,0.073274
1211.3848,0.072815
1213.2485,0.072150
1215.1121,0.071368
1216.9758,0.070485
1218.8395,0.069374
1220.7031,0.068202
1222.5668,0.067076
1224.4305,0.065989
1226.2941,0.064849
1228.1578,0.063811
1230.0215,0.062853
1231.8852,0.061790
1233.7488,0.060641
1235.6125,0.059430
1237.4762,0.058340
1239.3398,0.057538
1241.2035,0.057245
1243.0672,0.057615
1244.9308,0.058478
1246.7945,0.059327
1248.6582,0.059850
1250.5218,0.059905
1252.3855,0.059326
1254.2492,0.058404
1256.1129,0.057731
1257.9765,0.057575
1259.8402,0.057929
1261.7039,0.058458
1263.5675,0.059036
1265.4312,0.059581
1267.2949,0.059782
1269.1585,0.059724
1271.0222,0.059699
1272.8859,0.059759
1274.7495,0.059901
1276.6132,0.060304
1278.4769,0.060946
1280.3405,0.061877
1282.2042,0.062993
1284.0679,0.064262
1285.9316,0.065719
1287.7952,0.067506
1289.6589,0.069639
1291.5226,0.072196
1293.3862,0.075385
1295.2499,0.079447
1297.1136,0.084485
1298.9772,0.090616
1300.8409,0.097867
1302.7046,0.104733
1304.5682,0.107937
1306.4319,0.104957
1308.2956,0.094811
1310.1592,0.079307
1312.0229,0.064335
1313.8866,0.054697
1315.7503,0.050774
1317.6139,0.050308
1319.4776,0.051497
1321.3413,0.053038
1323.2049,0.054605
1325.0686,0.056347
1326.9323,0.058089
1328.7959,0.059757
1330.6596,0.061346
1332.5233,0.062695
1334.3869,0.063529
1336.2506,0.064299
1338.1143,0.065940
1339.9780,0.068552
1341.8416,0.070014
1343.7053,0.070237
1345.5690,0.069981
1347.4326,0.069570
1349.2963,0.069616
1351.1600,0.070128
1353.0236,0.071079
1354.8873,0.072664
1356.7510,0.074057
1358.6146,0.075083
1360.4783,0.076813
1362.3420,0.080336
1364.2056,0.083245
1366.0693,0.084378
1367.9330,0.086454
1369.7967,0.089085
1371.6603,0.091045
1373.5240,0.094502
1375.3877,0.098525
1377.2513,0.100955
1379.1150,0.104186
1380.9787,0.108471
1382.8423,0.113113
1384.7060,0.118714
1386.5697,0.126450
1388.4333,0.133411
1390.2970,0.134723
1392.1607,0.134812
1394.0244,0.135341
1395.8880,0.132500
1397.7517,0.126762
1399.6154,0.120390
1401.4790,0.113721
1403.3427,0.108442
1405.2064,0.100728
1407.0700,0.088840
1408.9337,0.076790
1410.7974,0.065890
1412.6610,0.057984
1414.5247,0.053945
1416.3884,0.053532
1418.2520,0.057647
1420.1157,0.064946
1421.9794,0.067925
1423.8431,0.067670
1425.7067,0.062710
1427.5704,0.056042
1429.4341,0.051018
1431.2977,0.047853
1433.1614,0.046429
1435.0251,0.046890
1436.8887,0.049666
1438.7524,0.051020
1440.6161,0.051228
1442.4797,0.052282
1444.3434,0.053227
1446.2071,0.054263
1448.0707,0.055368
1449.9344,0.054883
1451.7981,0.053262
1453.6618,0.051722
1455.5254,0.052413
1457.3891,0.057550
1459.2528,0.057066
1461.1164,0.053742
1462.9801,0.052903
1464.8438,0.053848
1466.7074,0.053270
1468.5711,0.051418
1470.4348,0.050493
1472.2984,0.051757
1474.1621,0.052855
1476.0258,0.052625
1477.8895,0.052262
1479.7531,0.052057
1481.6168,0.052574
1483.4805,0.052691
1485.3441,0.052581
1487.2078,0.053666
1489.0715,0.056395
1490.9351,0.058840
1492.7988,0.058171
1494.6625,0.058224
1496.5261,0.061007
1498.3898,0.063793
1500.2535,0.064230
1502.1171,0.063787
1503.9808,0.063477
1505.8445,0.066469
1507.7082,0.074560
1509.5718,0.072641
1511.4355,0.070517
1513.2992,0.069608
1515.1628,0.069335
1517.0265,0.070034
1518.8902,0.069575
1520.7538,0.070845
1522.6175,0.073266
1524.4812,0.072814
1526.3448,0.073241
1528.2085,0.073189
1530.0722,0.071917
1531.9359,0.072319
1533.7995,0.074538
1535.6632,0.073551
1537.5269,0.072493
1539.3905,0.076249
1541.2542,0.082812
1543.1179,0.082793
1544.9815,0.083331
1546.8452,0.083342
1548.7089,0.084042
1550.5725,0.086323
1552.4362,0.087469
1554.2999,0.088368
1556.1635,0.089824
1558.0272,0.095905
1559.8909,0.108445
1561.7546,0.102897
1563.6182,0.101044
1565.4819,0.103053
1567.3456,0.105368
1569.2092,0.109560
1571.0729,0.113049
1572.9366,0.112726
1574.8002,0.115483
1576.6639,0.122679
1578.5276,0.124221
1580.3912,0.123962
1582.2549,0.125824
1584.1186,0.127732
1585.9822,0.128830
1587.8459,0.129137
1589.7096,0.128946
1591.5733,0.128347
1593.4369,0.127625
1595.3006,0.126727
1597.1643,0.125451
1599.0279,0.123857
1600.8916,0.122516
1602.7553,0.121471
1604.6189,0.120547
1606.4826,0.119675
1608.3463,0.119143
1610.2099,0.118256
1612.0736,0.116518
1613.9373,0.114253
1615.8010,0.112618
1617.6646,0.107289
1619.5283,0.099410
1621.3920,0.094658
1623.2556,0.090359
1625.1193,0.083885
1626.9830,0.078403
1628.8466,0.072046
1630.7103,0.065196
1632.5740,0.059598
1634.4376,0.055383
1636.3013,0.050530
1638.1650,0.045820
1640.0286,0.043658
1641.8923,0.042384
1643.7560,0.041960
1645.6197,0.043136
1647.4833,0.045258
1649.3470,0.045532
1651.2107,0.046566
1653.0743,0.051878
1654.9380,0.055103
1656.8017,0.053474
1658.6653,0.053672
1660.5290,0.054534
1662.3927,0.055231
1664.2563,0.054546
1666.1200,0.053301
1667.9837,0.052993
1669.8474,0.052893
1671.7110,0.051981
1673.5747,0.052138
1675.4384,0.054166
1677.3020,0.055720
1679.1657,0.056773
1681.0294,0.059152
1682.8930,0.062724
1684.7567,0.067872
1686.6204,0.067845
1688.4840,0.066692
1690.3477,0.065864
1692.2114,0.063734
1694.0750,0.062057
1695.9387,0.060672
1697.8024,0.057701
1699.6661,0.055974
1701.5297,0.051112
1703.3934,0.046056
1705.2571,0.041972
1707.1207,0.035833
1708.9844,0.031201
1710.8481,0.027838
1712.7117,0.025079
1714.5754,0.023373
1716.4391,0.022246
1718.3027,0.021196
1720.1664,0.019936
1722.0301,0.019166
1723.8937,0.018201
1725.7574,0.016701
1727.6211,0.015427
1729.4848,0.014474
1731.3484,0.013481
1733.2121,0.012893
1735.0758,0.012306
1736.9394,0.011718
1738.8031,0.011636
1740.6668,0.011385
1742.5304,0.011034
1744.3941,0.010789
1746.2578,0.010517
1748.1214,0.010378
1749.9851,0.010294
1751.8488,0.009987
1753.7125,0.009899
1755.5761,0.010032
1757.4398,0.009840
1759.3035,0.009691
1761.1671,0.009895
1763.0308,0.009807
1764.8945,0.009627
1766.7581,0.009793
1768.6218,0.009867
1770.4855,0.009712
1772.3491,0.009758
1774.2128,0.009563
1776.0765,0.009409
1777.9401,0.009624
1779.8038,0.009879
1781.6675,0.009711
1783.5312,0.009571
1785.3948,0.009751
1787.2585,0.009747
1789.1222,0.009699
1790.9858,0.009838
1792.8495,0.009788
1794.7132,0.009726
1796.5768,0.009868
1798.4405,0.009990
1800.3042,0.010106
1802.1678,0.010077
1804.0315,0.009974
1805.8952,0.010037
1807.7589,0.010152
1809.6225,0.010289
1811.4862,0.010328
1813.3499,0.010132
1815.2135,0.010039
1817.0772,0.010165
1818.9409,0.010282
1820.8045,0.010266
1822.6682,0.010314
1824.5319,0.010302
1826.3955,0.009890
1828.2592,0.009834
1830.1229,0.010047
1831.9865,0.009824
1833.8502,0.009753
1835.7139,0.009939
1837.5776,0.009942
1839.4412,0.009794
1841.3049,0.009788
1843.1686,0.009924
1845.0322,0.009796
1846.8959,0.009643
1848.7596,0.009747
1850.6232,0.009815
1852.4869,0.009879
1854.3506,0.010063
1856.2142,0.010268
1858.0779,0.010160
1859.9416,0.009980
1861.8052,0.010098
1863.6689,0.010094
1865.5326,0.009827
1867.3963,0.009695
1869.2599,0.009774
1871.1236,0.009896
1872.9873,0.009773
1874.8509,0.009668
1876.7146,0.009960
1878.5783,0.010161
1880.4419,0.009987
1882.3056,0.009891
1884.1693,0.010152
1886.0329,0.010316
1887.8966,0.010313
1889.7603,0.010128
1891.6240,0.009826
1893.4876,0.009949
1895.3513,0.009917
1897.2150,0.009745
1899.0786,0.009683
1900.9423,0.009944
1902.8060,0.010368
1904.6696,0.010167
1906.5333,0.010043
1908.3970,0.010462
1910.2606,0.010623
1912.1243,0.010049
1913.9880,0.009640
1915.8516,0.009917
1917.7153,0.010275
1919.5790,0.010045
1921.4427,0.009757
1923.3063,0.009738
1925.1700,0.009439
1927.0337,0.009399
1928.8973,0.009707
1930.7610,0.009813
1932.6247,0.009746
1934.4883,0.009584
1936.3520,0.009422
1938.2157,0.009168
1940.0793,0.008835
1941.9430,0.008542
1943.8067,0.008661
1945.6704,0.009001
1947.5340,0.008523
1949.3977,0.007904
1951.2614,0.007506
1953.1250,0.007060
1954.9887,0.007257
1956.8524,0.007403
1958.7160,0.006836
1960.5797,0.006207
1962.4434,0.004967
1964.3070,0.003674
1966.1707,0.002754
1968.0344,0.002364
1969.8980,0.003135
1971.7617,0.003647
1973.6254,0.004165
1975.4891,0.004437
1977.3527,0.003729
1979.2164,0.003683
1981.0801,0.003423
1982.9437,0.003367
1984.8074,0.004142
1986.6711,0.004157
1988.5347,0.004847
1990.3984,0.006139
1992.2621,0.005685
1994.1257,0.004932
1995.9894,0.005977
1997.8531,0.006959
1999.7167,0.006601
2001.5804,0.006082
2003.4441,0.005278
2005.3078,0.004565
2007.1714,0.004534
2009.0351,0.003742
2010.8988,0.003049
2012.7624,0.003687
2014.6261,0.003009
2016.4898,0.001488
2018.3534,0.001027
2020.2171,0.000801
2022.0808,0.001351
2023.9444,0.003082
2025.8081,0.004183
2027.6718,0.003147
2029.5355,0.002348
2031.3991,0.003621
2033.2628,0.003676
2035.1265,0.002700
2036.9901,0.002825
2038.8538,0.003536
2040.7175,0.004790
2042.5811,0.005576
2044.4448,0.004662
2046.3085,0.004273
2048.1721,0.005908
2050.0358,0.006655
2051.8995,0.006402
2053.7631,0.007142
2055.6268,0.008101
2057.4905,0.008546
2059.3542,0.008553
2061.2178,0.008614
2063.0815,0.009157
2064.9452,0.009480
2066.8088,0.009174
2068.6725,0.008837
2070.5362,0.009134
2072.3998,0.009758
2074.2635,0.009508
2076.1272,0.009572
2077.9908,0.010337
2079.8545,0.010202
2081.7182,0.010126
2083.5819,0.010692
2085.4455,0.011157
2087.3092,0.010894
2089.1729,0.010137
2091.0365,0.010331
2092.9002,0.010690
2094.7639,0.010711
2096.6275,0.010649
2098.4912,0.010798
2100.3549,0.011307
2102.2185,0.010984
2104.0822,0.010292
2105.9459,0.010904
2107.8095,0.011973
2109.6732,0.011725
2111.5369,0.011397
2113.4006,0.012162
2115.2642,0.012435
2117.1279,0.011838
2118.9916,0.011621
2120.8552,0.011648
2122.7189,0.011501
2124.5826,0.011714
2126.4462,0.011565
2128.3099,0.010662
2130.1736,0.009891
2132.0372,0.009999
2133.9009,0.010722
2135.7646,0.010350
2137.6282,0.008990
2139.4919,0.008505
2141.3556,0.008350
2143.2193,0.007499
2145.0829,0.007487
2146.9466,0.007862
2148.8103,0.007511
2150.6739,0.007029
2152.5376,0.006494
2154.4013,0.005433
2156.2649,0.003487
2158.1286,0.002463
2159.9923,0.003073
2161.8559,0.003606
2163.7196,0.004308
2165.5833,0.004846
2167.4470,0.004592
2169.3106,0.004299
2171.1743,0.004690
2173.0380,0.005708
2174.9016,0.006199
2176.7653,0.006225
2178.6290,0.006360
2180.4926,0.007123
2182.3563,0.007030
2184.2200,0.007491
2186.0836,0.008738
2187.9473,0.008039
2189.8110,0.007702
2191.6746,0.008703
2193.5383,0.009303
2195.4020,0.008477
2197.2657,0.007658
2199.1293,0.008945
2200.9930,0.010354
2202.8567,0.010082
2204.7203,0.009313
2206.5840,0.009658
2208.4477,0.011088
2210.3113,0.011542
2212.1750,0.010702
2214.0387,0.010528
2215.9023,0.010347
2217.7660,0.010055
2219.6297,0.010959
2221.4934,0.011885
2223.3570,0.011830
2225.2207,0.011564
2227.0844,0.011480
2228.9480,0.011585
2230.8117,0.011675
2232.6754,0.012072
2234.5390,0.013071
2236.4027,0.013328
2238.2664,0.012626
2240.1300,0.012563
2241.9937,0.012911
2243.8574,0.013191
2245.7210,0.013312
2247.5847,0.013053
2249.4484,0.012991
2251.3121,0.013440
2253.1757,0.014166
2255.0394,0.014485
2256.9031,0.014758
2258.7667,0.014841
2260.6304,0.014602
2262.4941,0.014280
2264.3577,0.013854
2266.2214,0.014062
2268.0851,0.015364
2269.9487,0.015978
2271.8124,0.015273
2273.6761,0.014958
2275.5397,0.015408
2277.4034,0.015673
2279.2671,0.015951
2281.1308,0.016387
2282.9944,0.016698
2284.8581,0.016958
2286.7218,0.017134
2288.5854,0.017002
2290.4491,0.017000
2292.3128,0.017109
2294.1764,0.016974
2296.0401,0.016791
2297.9038,0.016889
2299.7674,0.017262
2301.6311,0.017545
2303.4948,0.017718
2305.3585,0.017711
2307.2221,0.017494
2309.0858,0.017412
2310.9495,0.017485
2312.8131,0.017692
2314.6768,0.017732
2316.5405,0.017446
2318.4041,0.017490
2320.2678,0.017947
2322.1315,0.018344
2323.9951,0.018332
2325.8588,0.017964
2327.7225,0.017581
2329.5861,0.017284
2331.4498,0.017288
2333.3135,0.017356
2335.1772,0.017161
2337.0408,0.016893
2338.9045,0.017033
2340.7682,0.017473
2342.6318,0.017833
2344.4955,0.018095
2346.3592,0.017934
2348.2228,0.017149
2350.0865,0.016663
2351.9502,0.016757
2353.8138,0.016916
2355.6775,0.017023
2357.5412,0.017281
2359.4049,0.017423
2361.2685,0.017156
2363.1322,0.017053
2364.9959,0.017031
2366.8595,0.016829
2368.7232,0.017282
2370.5869,0.017604
2372.4505,0.017566
2374.3142,0.017784
2376.1779,0.017803
2378.0415,0.017617
2379.9052,0.017532
2381.7689,0.017433
2383.6325,0.017756
2385.4962,0.017810
2387.3599,0.017343
2389.2236,0.017301
2391.0872,0.017469
2392.9509,0.017689
2394.8146,0.017822
2396.6782,0.017737
2398.5419,0.017740
2400.4056,0.017620
2402.2692,0.017601
2404.1329,0.017999
2405.9966,0.018022
2407.8602,0.017849
2409.7239,0.018028
2411.5876,0.018085
2413.4512,0.018074
2415.3149,0.018174
2417.1786,0.018204
2419.0423,0.018292
2420.9059,0.018349
2422.7696,0.018412
2424.6333,0.018509
2426.4969,0.018429
2428.3606,0.018180
2430.2243,0.018161
2432.0879,0.018492
2433.9516,0.018836
2435.8153,0.018826
2437.6789,0.018437
2439.5426,0.018313
2441.4063,0.018934
2443.2700,0.019303
2445.1336,0.018874
2446.9973,0.018596
2448.8610,0.018614
2450.7246,0.019018
2452.5883,0.019174
2454.4520,0.018885
2456.3156,0.018728
2458.1793,0.018646
2460.0430,0.018590
2461.9066,0.018606
2463.7703,0.018517
2465.6340,0.018680
2467.4976,0.019028
2469.3613,0.019050
2471.2250,0.018888
2473.0887,0.019197
2474.9523,0.019362
2476.8160,0.018966
2478.6797,0.018762
2480.5433,0.018789
2482.4070,0.018943
2484.2707,0.019193
2486.1343,0.019466
2487.9980,0.019470
2489.8617,0.019038
2491.7253,0.018996
2493.5890,0.019655
2495.4527,0.020361
2497.3164,0.020300
2499.1800,0.019711
2501.0437,0.019235
2502.9074,0.019487
2504.7710,0.020027
2506.6347,0.020132
2508.4984,0.019893
2510.3620,0.019542
2512.2257,0.019452
2514.0894,0.019596
2515.9530,0.019892
2517.8167,0.020207
2519.6804,0.020409
2521.5440,0.020596
2523.4077,0.020551
2525.2714,0.020568
2527.1351,0.020965
