Wavenumber,Intensity
650.4205,0.203494
652.2841,0.200506
654.1478,0.202018
656.0115,0.203269
657.8751,0.205054
659.7388,0.205589
661.6025,0.208011
663.4661,0.211772
665.3298,0.213920
667.1935,0.215870
669.0571,0.218139
670.9208,0.212716
672.7845,0.206256
674.6481,0.200552
676.5118,0.197377
678.3755,0.195374
680.2392,0.194225
682.1028,0.191485
683.9665,0.189422
685.8302,0.188413
687.6938,0.187791
689.5575,0.187319
691.4212,0.186661
693.2848,0.184628
695.1485,0.183829
697.0122,0.183964
698.8758,0.184537
700.7395,0.185172
702.6032,0.185294
704.4669,0.184878
706.3305,0.183562
708.1942,0.178821
710.0579,0.172747
711.9215,0.167412
713.7852,0.162308
715.6489,0.157984
717.5125,0.154830
719.3762,0.152116
721.2399,0.149882
723.1035,0.147707
724.9672,0.146407
726.8309,0.146151
728.6945,0.145376
730.5582,0.144216
732.4219,0.143896
734.2856,0.141964
736.1492,0.136049
738.0129,0.127834
739.8766,0.121032
741.7402,0.116388
743.6039,0.111883
745.4676,0.105626
747.3312,0.098541
749.1949,0.092901
751.0586,0.089647
752.9222,0.087451
754.7859,0.085940
756.6496,0.085003
758.5132,0.084647
760.3769,0.084547
762.2406,0.084305
764.1043,0.084048
765.9679,0.083662
767.8316,0.084078
769.6953,0.085238
771.5589,0.085531
773.4226,0.085560
775.2863,0.086254
777.1499,0.087377
779.0136,0.088560
780.8773,0.089925
782.7409,0.091287
784.6046,0.092545
786.4683,0.093877
788.3320,0.095710
790.1956,0.098086
792.0593,0.100491
793.9230,0.102388
795.7866,0.104103
797.6503,0.105979
799.5140,0.107665
801.3776,0.109158
803.2413,0.110216
805.1050,0.110042
806.9686,0.109492
808.8323,0.108660
810.6960,0.106922
812.5596,0.104753
814.4233,0.102700
816.2870,0.100477
818.1507,0.098214
820.0143,0.096153
821.8780,0.094826
823.7417,0.094752
825.6053,0.095679
827.4690,0.097629
829.3327,0.098945
831.1963,0.094751
833.0600,0.085377
834.9237,0.077434
836.7873,0.074066
838.6510,0.073739
840.5147,0.074608
842.3784,0.076312
844.2420,0.079193
846.1057,0.082398
847.9694,0.081787
849.8330,0.076604
851.6967,0.072386
853.5604,0.071100
855.4240,0.071357
857.2877,0.072312
859.1514,0.073144
861.0150,0.073741
862.8787,0.074301
864.7424,0.074726
866.6060,0.075122
868.4697,0.075873
870.3334,0.076818
872.1971,0.077808
874.0607,0.078797
875.9244,0.079841
877.7881,0.081362
879.6517,0.083185
881.5154,0.085242
883.3791,0.087821
885.2427,0.090822
887.1064,0.094605
888.9701,0.099159
890.8337,0.103296
892.6974,0.104577
894.5611,0.100529
896.4247,0.093976
898.2884,0.090253
900.1521,0.090405
902.0158,0.092623
903.8794,0.095981
905.7431,0.100258
907.6068,0.105235
909.4704,0.110972
911.3341,0.117604
913.1978,0.124659
915.0614,0.127872
916.9251,0.121075
918.7888,0.108002
920.6524,0.098461
922.5161,0.094979
924.3798,0.094753
926.2435,0.095715
928.1071,0.097106
929.9708,0.098815
931.8345,0.100659
933.6981,0.102563
935.5618,0.104467
937.4255,0.106216
939.2891,0.108006
941.1528,0.109902
943.0165,0.111846
944.8801,0.113911
946.7438,0.116364
948.6075,0.119173
950.4711,0.122108
952.3348,0.125451
954.1985,0.129297
956.0622,0.133212
957.9258,0.136791
959.7895,0.139267
961.6532,0.139503
963.5168,0.137806
965.3805,0.135973
967.2442,0.135730
969.1078,0.137520
970.9715,0.140792
972.8352,0.145422
974.6988,0.152257
976.5625,0.162640
978.4262,0.178907
980.2899,0.200549
982.1535,0.209647
984.0172,0.187926
985.8809,0.159103
987.7445,0.147664
989.6082,0.148204
991.4719,0.151295
993.3355,0.154659
995.1992,0.157912
997.0629,0.161165
998.9265,0.164450
1000.7902,0.167723
1002.6539,0.171063
1004.5175,0.174454
1006.3812,0.177674
1008.2449,0.180735
1010.1086,0.183315
1011.9722,0.185094
1013.8359,0.186379
1015.6996,0.187366
1017.5632,0.187682
1019.4269,0.187171
1021.2906,0.186399
1023.1542,0.185813
1025.0179,0.185368
1026.8816,0.185182
1028.7452,0.185329
1030.6089,0.185732
1032.4726,0.186119
1034.3362,0.185408
1036.1999,0.181581
1038.0636,0.174221
1039.9273,0.166348
1041.7909,0.161658
1043.6546,0.160798
1045.5183,0.160375
1047.3819,0.156658
1049.2456,0.148871
1051.1093,0.137943
1052.9729,0.126269
1054.8366,0.117026
1056.7003,0.111699
1058.5639,0.109622
1060.4276,0.109349
1062.2913,0.109876
1064.1550,0.110886
1066.0186,0.112391
1067.8823,0.114323
1069.7460,0.116483
1071.6096,0.118952
1073.4733,0.121595
1075.3370,0.124168
1077.2006,0.126614
1079.0643,0.129089
1080.9280,0.131806
1082.7916,0.134684
1084.6553,0.137930
1086.5190,0.141772
1088.3826,0.145970
1090.2463,0.150507
1092.1100,0.155792
1093.9737,0.161745
1095.8373,0.167772
1097.7010,0.173423
1099.5647,0.178214
1101.4283,0.181733
1103.2920,0.183995
1105.1557,0.184899
1107.0193,0.183563
1108.8830,0.178294
1110.7467,0.168014
1112.6103,0.154154
1114.4740,0.139412
1116.3377,0.125840
1118.2014,0.114791
1120.0650,0.106771
1121.9287,0.101505
1123.7924,0.098399
1125.6560,0.096539
1127.5197,0.094973
1129.3834,0.093435
1131.2470,0.092198
1133.1107,0.091321
1134.9744,0.090803
1136.8380,0.090840
1138.7017,0.091314
1140.5654,0.092070
1142.4290,0.093046
1144.2927,0.094063
1146.1564,0.095081
1148.0201,0.096067
1149.8837,0.097080
1151.7474,0.098273
1153.6111,0.099609
1155.4747,0.101007
1157.3384,0.102623
1159.2021,0.104400
1161.0657,0.106183
1162.9294,0.108344
1164.7931,0.111124
1166.6567,0.114394
1168.5204,0.118088
1170.3841,0.121722
1172.2477,0.123948
1174.1114,0.123357
1175.9751,0.119814
1177.8388,0.114959
1179.7024,0.110760
1181.5661,0.108129
1183.4298,0.106738
1185.2934,0.105893
1187.1571,0.105272
1189.0208,0.104691
1190.8844,0.104059
1192.7481,0.103441
1194.6118,0.102955
1196.4754,0.102807
1198.3391,0.103051
1200.2028,0.103468
1202.0665,0.103815
1203.9301,0.103872
1205.7938,0.103441
1207.6575,0.102653
1209.5211,0.101735
1211.3848,0.100595
1213.2485,0.099101
1215.1121,0.097400
1216.9758,0.095683
1218.8395,0.093899
1220.7031,0.092018
1222.5668,0.090146
1224.4305,0.088371
1226.2941,0.086666
1228.1578,0.084989
1230.0215,0.083338
1231.8852,0.081557
1233.7488,0.079570
1235.6125,0.077480
1237.4762,0.075616
1239.3398,0.074338
1241.2035,0.073942
1243.0672,0.074641
1244.9308,0.076011
1246.7945,0.077391
1248.6582,0.078288
1250.5218,0.078134
1252.3855,0.076748
1254.2492,0.074964
1256.1129,0.073723
1257.9765,0.073327
1259.8402,0.073680
1261.7039,0.074323
1263.5675,0.074915
1265.4312,0.075546
1267.2949,0.075973
1269.1585,0.075953
1271.0222,0.075718
1272.8859,0.075617
1274.7495,0.075871
1276.6132,0.076445
1278.4769,0.077315
1280.3405,0.078489
1282.2042,0.079823
1284.0679,0.081359
1285.9316,0.083266
1287.7952,0.085794
1289.6589,0.088822
1291.5226,0.092279
1293.3862,0.096617
1295.2499,0.102076
1297.1136,0.108934
1298.9772,0.117424
1300.8409,0.126965
1302.7046,0.135175
1304.5682,0.138080
1306.4319,0.132605
1308.2956,0.118086
1310.1592,0.097652
1312.0229,0.078630
1313.8866,0.066825
1315.7503,0.062560
1317.6139,0.062581
1319.4776,0.064407
1321.3413,0.066552
1323.2049,0.068805
1325.0686,0.071162
1326.9323,0.073322
1328.7959,0.075513
1330.6596,0.077654
1332.5233,0.079439
1334.3869,0.080665
1336.2506,0.081802
1338.1143,0.083954
1339.9780,0.087450
1341.8416,0.090103
1343.7053,0.090802
1345.5690,0.090070
1347.4326,0.088589
1349.2963,0.088071
1351.1600,0.088743
1353.0236,0.090099
1354.8873,0.091991
1356.7510,0.093895
1358.6146,0.095519
1360.4783,0.097844
1362.3420,0.101874
1364.2056,0.105434
1366.0693,0.107088
1367.9330,0.109761
1369.7967,0.113018
1371.6603,0.115642
1373.5240,0.119843
1375.3877,0.124844
1377.2513,0.128048
1379.1150,0.132278
1380.9787,0.138107
1382.8423,0.144729
1384.7060,0.152779
1386.5697,0.162984
1388.4333,0.171480
1390.2970,0.172450
1392.1607,0.171540
1394.0244,0.171063
1395.8880,0.167000
1397.7517,0.159335
1399.6154,0.150474
1401.4790,0.141985
1403.3427,0.134407
1405.2064,0.123609
1407.0700,0.108804
1408.9337,0.093949
1410.7974,0.080542
1412.6610,0.071360
1414.5247,0.067588
1416.3884,0.068311
1418.2520,0.074139
1420.1157,0.083741
1421.9794,0.088013
1423.8431,0.086663
1425.7067,0.079298
1427.5704,0.070196
1429.4341,0.063786
1431.2977,0.060248
1433.1614,0.058960
1435.0251,0.059660
1436.8887,0.062914
1438.7524,0.064860
1440.6161,0.065275
1442.4797,0.066733
1444.3434,0.068114
1446.2071,0.069326
1448.0707,0.070480
1449.9344,0.069862
1451.7981,0.067916
1453.6618,0.066463
1455.5254,0.067749
1457.3891,0.073726
1459.2528,0.073428
1461.1164,0.068931
1462.9801,0.067100
1464.8438,0.067761
1466.7074,0.067461
1468.5711,0.065539
1470.4348,0.064699
1472.2984,0.066028
1474.1621,0.067664
1476.0258,0.067430
1477.8895,0.067332
1479.7531,0.067441
1481.6168,0.068300
1483.4805,0.068763
1485.3441,0.069026
1487.2078,0.070473
1489.0715,0.073801
1490.9351,0.077063
1492.7988,0.077078
1494.6625,0.077337
1496.5261,0.081114
1498.3898,0.085049
1500.2535,0.086121
1502.1171,0.085669
1503.9808,0.085258
1505.8445,0.088510
1507.7082,0.097108
1509.5718,0.095791
1511.4355,0.093635
1513.2992,0.092244
1515.1628,0.091128
1517.0265,0.091003
1518.8902,0.090485
1520.7538,0.091431
1522.6175,0.094469
1524.4812,0.094178
1526.3448,0.094335
1528.2085,0.093984
1530.0722,0.092502
1531.9359,0.092396
1533.7995,0.094282
1535.6632,0.093540
1537.5269,0.092307
1539.3905,0.095965
1541.2542,0.103210
1543.1179,0.103899
1544.9815,0.104979
1546.8452,0.105796
1548.7089,0.106926
1550.5725,0.109676
1552.4362,0.111214
1554.2999,0.112273
1556.1635,0.114133
1558.0272,0.119694
1559.8909,0.134515
1561.7546,0.131493
1563.6182,0.129732
1565.4819,0.132273
1567.3456,0.135414
1569.2092,0.140238
1571.0729,0.145419
1572.9366,0.145778
1574.8002,0.148994
1576.6639,0.157196
1578.5276,0.160700
1580.3912,0.160800
1582.2549,0.163028
1584.1186,0.164726
1585.9822,0.165543
1587.8459,0.165442
1589.7096,0.164767
1591.5733,0.163236
1593.4369,0.161653
1595.3006,0.160154
1597.1643,0.158618
1599.0279,0.156686
1600.8916,0.155115
1602.7553,0.153947
1604.6189,0.153097
1606.4826,0.152348
1608.3463,0.152101
1610.2099,0.151184
1612.0736,0.148689
1613.9373,0.144987
1615.8010,0.140208
1617.6646,0.131833
1619.5283,0.122981
1621.3920,0.116075
1623.2556,0.108464
1625.1193,0.100666
1626.9830,0.093894
1628.8466,0.086036
1630.7103,0.078171
1632.5740,0.071698
1634.4376,0.065462
1636.3013,0.058461
1638.1650,0.054140
1640.0286,0.052980
1641.8923,0.052028
1643.7560,0.052169
1645.6197,0.053750
1647.4833,0.056356
1649.3470,0.057291
1651.2107,0.058727
1653.0743,0.063380
1654.9380,0.067701
1656.8017,0.066841
1658.6653,0.067083
1660.5290,0.067600
1662.3927,0.068075
1664.2563,0.067190
1666.1200,0.065469
1667.9837,0.064290
1669.8474,0.064053
1671.7110,0.063633
1673.5747,0.063832
1675.4384,0.065864
1677.3020,0.068338
1679.1657,0.070035
1681.0294,0.073086
1682.8930,0.076862
1684.7567,0.083286
1686.6204,0.084734
1688.4840,0.083288
1690.3477,0.081920
1692.2114,0.079406
1694.0750,0.076410
1695.9387,0.073439
1697.8024,0.070025
1699.6661,0.067472
1701.5297,0.061866
1703.3934,0.056613
1705.2571,0.050491
1707.1207,0.042892
1708.9844,0.037493
1710.8481,0.033589
1712.7117,0.030253
1714.5754,0.028120
1716.4391,0.026376
1718.3027,0.025576
1720.1664,0.024602
1722.0301,0.023717
1723.8937,0.022278
1725.7574,0.020597
1727.6211,0.018920
1729.4848,0.017704
1731.3484,0.016604
1733.2121,0.016048
1735.0758,0.015020
1736.9394,0.014499
1738.8031,0.014391
1740.6668,0.014298
1742.5304,0.013889
1744.3941,0.013775
1746.2578,0.013338
1748.1214,0.013063
1749.9851,0.012899
1751.8488,0.012856
1753.7125,0.012513
1755.5761,0.012501
1757.4398,0.012424
1759.3035,0.012403
1761.1671,0.012440
1763.0308,0.012413
1764.8945,0.012106
1766.7581,0.012231
1768.6218,0.012169
1770.4855,0.012174
1772.3491,0.012309
1774.2128,0.012160
1776.0765,0.011947
1777.9401,0.012195
1779.8038,0.012262
1781.6675,0.012365
1783.5312,0.012476
1785.3948,0.012640
1787.2585,0.012445
1789.1222,0.012384
1790.9858,0.012430
1792.8495,0.012651
1794.7132,0.012413
1796.5768,0.012379
1798.4405,0.012544
1800.3042,0.012879
1802.1678,0.012891
1804.0315,0.012850
1805.8952,0.012814
1807.7589,0.013091
1809.6225,0.013228
1811.4862,0.013303
1813.3499,0.012970
1815.2135,0.012729
1817.0772,0.012617
1818.9409,0.012932
1820.8045,0.013090
1822.6682,0.013068
1824.5319,0.012927
1826.3955,0.012986
1828.2592,0.012887
1830.1229,0.012899
1831.9865,0.012528
1833.8502,0.012573
1835.7139,0.012786
1837.5776,0.013049
1839.4412,0.012925
1841.3049,0.012570
1843.1686,0.012384
1845.0322,0.012592
1846.8959,0.012622
1848.7596,0.012933
1850.6232,0.012994
1852.4869,0.012991
1854.3506,0.013135
1856.2142,0.013428
1858.0779,0.013059
1859.9416,0.012752
1861.8052,0.012775
1863.6689,0.012855
1865.5326,0.012530
1867.3963,0.012607
1869.2599,0.013127
1871.1236,0.013094
1872.9873,0.012611
1874.8509,0.012617
1876.7146,0.013061
1878.5783,0.013447
1880.4419,0.013229
1882.3056,0.013242
1884.1693,0.013025
1886.0329,0.013115
1887.8966,0.013376
1889.7603,0.013452
1891.6240,0.012766
1893.4876,0.012598
1895.3513,0.012990
1897.2150,0.013468
1899.0786,0.013377
1900.9423,0.013391
1902.8060,0.013378
1904.6696,0.013652
1906.5333,0.013660
1908.3970,0.013578
1910.2606,0.013249
1912.1243,0.013396
1913.9880,0.013396
1915.8516,0.013298
1917.7153,0.013023
1919.5790,0.013016
1921.4427,0.012757
1923.3063,0.012984
1925.1700,0.012461
1927.0337,0.012396
1928.8973,0.012702
1930.7610,0.012839
1932.6247,0.012717
1934.4883,0.012604
1936.3520,0.012110
1938.2157,0.011908
1940.0793,0.012026
1941.9430,0.012329
1943.8067,0.011339
1945.6704,0.010645
1947.5340,0.010463
1949.3977,0.010713
1951.2614,0.010437
1953.1250,0.009977
1954.9887,0.008854
1956.8524,0.008926
1958.7160,0.008233
1960.5797,0.007404
1962.4434,0.006774
1964.3070,0.007053
1966.1707,0.006540
1968.0344,0.005581
1969.8980,0.004937
1971.7617,0.005972
1973.6254,0.006572
1975.4891,0.005898
1977.3527,0.004347
1979.2164,0.005117
1981.0801,0.005418
1982.9437,0.006874
1984.8074,0.007569
1986.6711,0.007854
1988.5347,0.007453
1990.3984,0.007220
1992.2621,0.007686
1994.1257,0.007977
1995.9894,0.007378
1997.8531,0.007677
1999.7167,0.007418
2001.5804,0.007114
2003.4441,0.006608
2005.3078,0.006376
2007.1714,0.005676
2009.0351,0.005458
2010.8988,0.005825
2012.7624,0.006920
2014.6261,0.006009
2016.4898,0.004648
2018.3534,0.003398
2020.2171,0.004037
2022.0808,0.004010
2023.9444,0.003534
2025.8081,0.003569
2027.6718,0.004627
2029.5355,0.003988
2031.3991,0.004881
2033.2628,0.005156
2035.1265,0.005050
2036.9901,0.005355
2038.8538,0.005388
2040.7175,0.005550
2042.5811,0.006834
2044.4448,0.006769
2046.3085,0.007944
2048.1721,0.008535
2050.0358,0.008776
2051.8995,0.009950
2053.7631,0.010794
2055.6268,0.011003
2057.4905,0.011501
2059.3542,0.012235
2061.2178,0.012330
2063.0815,0.011906
2064.9452,0.012248
2066.8088,0.012876
2068.6725,0.013332
2070.5362,0.013113
2072.3998,0.013429
2074.2635,0.013402
2076.1272,0.012883
2077.9908,0.012606
2079.8545,0.013686
2081.7182,0.014042
2083.5819,0.013981
2085.4455,0.014238
2087.3092,0.014816
2089.1729,0.015022
2091.0365,0.014636
2092.9002,0.013887
2094.7639,0.014792
2096.6275,0.014889
2098.4912,0.014502
2100.3549,0.014594
2102.2185,0.014850
2104.0822,0.014918
2105.9459,0.015141
2107.8095,0.015440
2109.6732,0.015965
2111.5369,0.016044
2113.4006,0.016174
2115.2642,0.015835
2117.1279,0.015845
2118.9916,0.015541
2120.8552,0.015436
2122.7189,0.015527
2124.5826,0.015534
2126.4462,0.015198
2128.3099,0.014520
2130.1736,0.014261
2132.0372,0.014451
2133.9009,0.013992
2135.7646,0.013773
2137.6282,0.012237
2139.4919,0.011649
2141.3556,0.011186
2143.2193,0.010593
2145.0829,0.010456
2146.9466,0.010745
2148.8103,0.010399
2150.6739,0.010680
2152.5376,0.008797
2154.4013,0.007662
2156.2649,0.007129
2158.1286,0.004865
2159.9923,0.004199
2161.8559,0.005920
2163.7196,0.006120
2165.5833,0.007607
2167.4470,0.008343
2169.3106,0.008989
2171.1743,0.008260
2173.0380,0.008542
2174.9016,0.008763
2176.7653,0.009272
2178.6290,0.008602
2180.4926,0.008183
2182.3563,0.009691
2184.2200,0.012272
2186.0836,0.011249
2187.9473,0.010456
2189.8110,0.010797
2191.6746,0.010659
2193.5383,0.010977
2195.4020,0.011954
2197.2657,0.012477
2199.1293,0.013117
2200.9930,0.013390
2202.8567,0.013103
2204.7203,0.013216
2206.5840,0.013631
2208.4477,0.013349
2210.3113,0.013865
2212.1750,0.014205
2214.0387,0.014357
2215.9023,0.014558
2217.7660,0.015375
2219.6297,0.015629
2221.4934,0.015323
2223.3570,0.014747
2225.2207,0.015024
2227.0844,0.015741
2228.9480,0.015599
2230.8117,0.015296
2232.6754,0.016675
2234.5390,0.016414
2236.4027,0.015804
2238.2664,0.016824
2240.1300,0.017708
2241.9937,0.017758
2243.8574,0.017401
2245.7210,0.016748
2247.5847,0.016781
2249.4484,0.017314
2251.3121,0.018289
2253.1757,0.018618
2255.0394,0.019135
2256.9031,0.019192
2258.7667,0.019011
2260.6304,0.018778
2262.4941,0.018899
2264.3577,0.018869
2266.2214,0.018841
2268.0851,0.019021
2269.9487,0.019870
2271.8124,0.020887
2273.6761,0.021091
2275.5397,0.020931
2277.4034,0.021341
2279.2671,0.021398
2281.1308,0.021299
2282.9944,0.021729
2284.8581,0.022268
2286.7218,0.022588
2288.5854,0.022572
2290.4491,0.022007
2292.3128,0.022054
2294.1764,0.022453
2296.0401,0.022385
2297.9038,0.022410
2299.7674,0.022577
2301.6311,0.022601
2303.4948,0.022550
2305.3585,0.022734
2307.2221,0.022989
2309.0858,0.023036
2310.9495,0.022951
2312.8131,0.022732
2314.6768,0.022802
2316.5405,0.022660
2318.4041,0.022883
2320.2678,0.023159
2322.1315,0.023293
2323.9951,0.023273
2325.8588,0.022763
2327.7225,0.022060
2329.5861,0.021842
2331.4498,0.022117
2333.3135,0.022444
2335.1772,0.022175
2337.0408,0.022082
2338.9045,0.022268
2340.7682,0.022299
2342.6318,0.022300
2344.4955,0.022516
2346.3592,0.022570
2348.2228,0.022456
2350.0865,0.022315
2351.9502,0.022144
2353.8138,0.022121
2355.6775,0.022161
2357.5412,0.021838
2359.4049,0.021368
2361.2685,0.021340
2363.1322,0.021919
2364.9959,0.022169
2366.8595,0.022271
2368.7232,0.022482
2370.5869,0.022701
2372.4505,0.022909
2374.3142,0.022905
2376.1779,0.023249
2378.0415,0.023340
2379.9052,0.022870
2381.7689,0.022925
2383.6325,0.023229
2385.4962,0.023271
2387.3599,0.023308
2389.2236,0.023301
2391.0872,0.023312
2392.9509,0.023301
2394.8146,0.023190
2396.6782,0.023363
2398.5419,0.023470
2400.4056,0.023645
2402.2692,0.023674
2404.1329,0.023747
2405.9966,0.023679
2407.8602,0.023816
2409.7239,0.023982
2411.5876,0.023946
2413.4512,0.024092
2415.3149,0.024029
2417.1786,0.023919
2419.0423,0.024110
2420.9059,0.024311
2422.7696,0.024286
2424.6333,0.024241
2426.4969,0.024217
2428.3606,0.024344
2430.2243,0.024606
2432.0879,0.024333
2433.9516,0.024255
2435.8153,0.024521
2437.6789,0.024435
2439.5426,0.024350
2441.4063,0.024494
2443.2700,0.024457
2445.1336,0.024765
2446.9973,0.024965
2448.8610,0.024661
2450.7246,0.024755
2452.5883,0.024808
2454.4520,0.024666
2456.3156,0.024584
2458.1793,0.024363
2460.0430,0.024562
2461.9066,0.024662
2463.7703,0.024443
2465.6340,0.024576
2467.4976,0.024936
2469.3613,0.025048
2471.2250,0.025004
2473.0887,0.025068
2474.9523,0.025273
2476.8160,0.025167
2478.6797,0.025156
2480.5433,0.025558
2482.4070,0.025275
2484.2707,0.024885
2486.1343,0.025035
2487.9980,0.025198
2489.8617,0.025606
2491.7253,0.025800
2493.5890,0.025512
2495.4527,0.025730
2497.3164,0.026394
2499.1800,0.026298
2501.0437,0.025980
2502.9074,0.025766
2504.7710,0.025682
2506.6347,0.025978
2508.4984,0.026280
2510.3620,0.026032
2512.2257,0.025988
2514.0894,0.026226
2515.9530,0.026525
2517.8167,0.026545
2519.6804,0.026868
2521.5440,0.027171
2523.4077,0.027055
2525.2714,0.026825
2527.1351,0.026719
