Wavenumber,Intensity
650.4205,0.205346
652.2841,0.215101
654.1478,0.227785
656.0115,0.237546
657.8751,0.245765
659.7388,0.253853
661.6025,0.268671
663.4661,0.283414
665.3298,0.294601
667.1935,0.305037
669.0571,0.305451
670.9208,0.280123
672.7845,0.259713
674.6481,0.242647
676.5118,0.231103
678.3755,0.224991
680.2392,0.221854
682.1028,0.215712
683.9665,0.205530
685.8302,0.192487
687.6938,0.181443
689.5575,0.174001
691.4212,0.167401
693.2848,0.158925
695.1485,0.151940
697.0122,0.147166
698.8758,0.144216
700.7395,0.142903
702.6032,0.142939
704.4669,0.142425
706.3305,0.139838
708.1942,0.134866
710.0579,0.130194
711.9215,0.126001
713.7852,0.121590
715.6489,0.117723
717.5125,0.115466
719.3762,0.114174
721.2399,0.113157
723.1035,0.112505
724.9672,0.113221
726.8309,0.115685
728.6945,0.118736
730.5582,0.122575
732.4219,0.128866
734.2856,0.139912
736.1492,0.160421
738.0129,0.189384
739.8766,0.216490
741.7402,0.231348
743.6039,0.219261
745.4676,0.170923
747.3312,0.128253
749.1949,0.112213
751.0586,0.105614
752.9222,0.103860
754.7859,0.098738
756.6496,0.086377
758.5132,0.079192
760.3769,0.078672
762.2406,0.081306
764.1043,0.086565
765.9679,0.092553
767.8316,0.093304
769.6953,0.089724
771.5589,0.087805
773.4226,0.089005
775.2863,0.091982
777.1499,0.095488
779.0136,0.098108
780.8773,0.099010
782.7409,0.099115
784.6046,0.100106
786.4683,0.101997
788.3320,0.104098
790.1956,0.106306
792.0593,0.108871
793.9230,0.111424
795.7866,0.114235
797.6503,0.117923
799.5140,0.122568
801.3776,0.126959
803.2413,0.128507
805.1050,0.126284
806.9686,0.123742
808.8323,0.122805
810.6960,0.122521
812.5596,0.121497
814.4233,0.120398
816.2870,0.119716
818.1507,0.119584
820.0143,0.119414
821.8780,0.119845
823.7417,0.121107
825.6053,0.123033
827.4690,0.126134
829.3327,0.129687
831.1963,0.129382
833.0600,0.124775
834.9237,0.121279
836.7873,0.120533
838.6510,0.120555
840.5147,0.120653
842.3784,0.122051
844.2420,0.126747
846.1057,0.133719
847.9694,0.139546
849.8330,0.140458
851.6967,0.136742
853.5604,0.136162
855.4240,0.141120
857.2877,0.144068
859.1514,0.143285
861.0150,0.143561
862.8787,0.146804
864.7424,0.149226
866.6060,0.147203
868.4697,0.142736
870.3334,0.140697
872.1971,0.142250
874.0607,0.145530
875.9244,0.147932
877.7881,0.147979
879.6517,0.147159
881.5154,0.147973
883.3791,0.149781
885.2427,0.151471
887.1064,0.152950
888.9701,0.154455
890.8337,0.156188
892.6974,0.158407
894.5611,0.160761
896.4247,0.163124
898.2884,0.165922
900.1521,0.169099
902.0158,0.172180
903.8794,0.175977
905.7431,0.180602
907.6068,0.185944
909.4704,0.192289
911.3341,0.200209
913.1978,0.209605
915.0614,0.217703
916.9251,0.218527
918.7888,0.211826
920.6524,0.203245
922.5161,0.196978
924.3798,0.194175
926.2435,0.194197
928.1071,0.194886
929.9708,0.195240
931.8345,0.195617
933.6981,0.196819
935.5618,0.199238
937.4255,0.202449
939.2891,0.205353
941.1528,0.208021
943.0165,0.210745
944.8801,0.213842
946.7438,0.216786
948.6075,0.219585
950.4711,0.222426
952.3348,0.225407
954.1985,0.228604
956.0622,0.232180
957.9258,0.235908
959.7895,0.239830
961.6532,0.243640
963.5168,0.247159
965.3805,0.250131
967.2442,0.253629
969.1078,0.258289
970.9715,0.263618
972.8352,0.269528
974.6988,0.277140
976.5625,0.287287
978.4262,0.301405
980.2899,0.317950
982.1535,0.323191
984.0172,0.305800
985.8809,0.285656
987.7445,0.277857
989.6082,0.276895
991.4719,0.277378
993.3355,0.279366
995.1992,0.282499
997.0629,0.286338
998.9265,0.290415
1000.7902,0.294514
1002.6539,0.298878
1004.5175,0.303786
1006.3812,0.306531
1008.2449,0.303789
1010.1086,0.297886
1011.9722,0.292518
1013.8359,0.287792
1015.6996,0.281952
1017.5632,0.274188
1019.4269,0.264979
1021.2906,0.254338
1023.1542,0.243078
1025.0179,0.231826
1026.8816,0.221193
1028.7452,0.211559
1030.6089,0.202944
1032.4726,0.194892
1034.3362,0.187542
1036.1999,0.180870
1038.0636,0.174765
1039.9273,0.169153
1041.7909,0.164170
1043.6546,0.159477
1045.5183,0.155037
1047.3819,0.150798
1049.2456,0.145915
1051.1093,0.139553
1052.9729,0.132184
1054.8366,0.125491
1056.7003,0.120980
1058.5639,0.118694
1060.4276,0.117644
1062.2913,0.116722
1064.1550,0.116064
1066.0186,0.115811
1067.8823,0.115264
1069.7460,0.114776
1071.6096,0.115706
1073.4733,0.118144
1075.3370,0.120620
1077.2006,0.120529
1079.0643,0.117995
1080.9280,0.115901
1082.7916,0.115891
1084.6553,0.117203
1086.5190,0.119180
1088.3826,0.121783
1090.2463,0.124948
1092.1100,0.128618
1093.9737,0.132773
1095.8373,0.136820
1097.7010,0.139717
1099.5647,0.140698
1101.4283,0.140084
1103.2920,0.138229
1105.1557,0.135128
1107.0193,0.131626
1108.8830,0.127815
1110.7467,0.123180
1112.6103,0.117877
1114.4740,0.112068
1116.3377,0.105547
1118.2014,0.098808
1120.0650,0.092957
1121.9287,0.088619
1123.7924,0.085916
1125.6560,0.084621
1127.5197,0.084049
1129.3834,0.083300
1131.2470,0.081936
1133.1107,0.079974
1134.9744,0.078216
1136.8380,0.077527
1138.7017,0.077957
1140.5654,0.079372
1142.4290,0.080830
1144.2927,0.080733
1146.1564,0.078662
1148.0201,0.075521
1149.8837,0.072988
1151.7474,0.072687
1153.6111,0.074723
1155.4747,0.076890
1157.3384,0.076456
1159.2021,0.073494
1161.0657,0.069998
1162.9294,0.067075
1164.7931,0.065076
1166.6567,0.064301
1168.5204,0.064744
1170.3841,0.065913
1172.2477,0.066919
1174.1114,0.066751
1175.9751,0.065038
1177.8388,0.062478
1179.7024,0.060268
1181.5661,0.058946
1183.4298,0.058338
1185.2934,0.058379
1187.1571,0.058831
1189.0208,0.059343
1190.8844,0.059649
1192.7481,0.059655
1194.6118,0.059568
1196.4754,0.059747
1198.3391,0.060217
1200.2028,0.060917
1202.0665,0.061709
1203.9301,0.062406
1205.7938,0.062866
1207.6575,0.063054
1209.5211,0.063167
1211.3848,0.063449
1213.2485,0.063883
1215.1121,0.064580
1216.9758,0.065799
1218.8395,0.067222
1220.7031,0.068642
1222.5668,0.070696
1224.4305,0.074050
1226.2941,0.078575
1228.1578,0.082462
1230.0215,0.083113
1231.8852,0.078765
1233.7488,0.071193
1235.6125,0.065441
1237.4762,0.063722
1239.3398,0.064308
1241.2035,0.065586
1243.0672,0.067218
1244.9308,0.068814
1246.7945,0.070100
1248.6582,0.071413
1250.5218,0.072328
1252.3855,0.072111
1254.2492,0.071441
1256.1129,0.071048
1257.9765,0.070839
1259.8402,0.071140
1261.7039,0.071769
1263.5675,0.072426
1265.4312,0.073311
1267.2949,0.074345
1269.1585,0.075361
1271.0222,0.076468
1272.8859,0.077802
1274.7495,0.079150
1276.6132,0.080271
1278.4769,0.081000
1280.3405,0.081293
1282.2042,0.081473
1284.0679,0.082007
1285.9316,0.083263
1287.7952,0.085645
1289.6589,0.088931
1291.5226,0.092583
1293.3862,0.095596
1295.2499,0.097389
1297.1136,0.099331
1298.9772,0.102892
1300.8409,0.107909
1302.7046,0.113304
1304.5682,0.117750
1306.4319,0.119758
1308.2956,0.116909
1310.1592,0.108839
1312.0229,0.101067
1313.8866,0.097269
1315.7503,0.094600
1317.6139,0.090421
1319.4776,0.086610
1321.3413,0.085829
1323.2049,0.088040
1325.0686,0.091949
1326.9323,0.096052
1328.7959,0.099917
1330.6596,0.104329
1332.5233,0.109494
1334.3869,0.114488
1336.2506,0.118509
1338.1143,0.121241
1339.9780,0.122539
1341.8416,0.120902
1343.7053,0.120807
1345.5690,0.125563
1347.4326,0.133752
1349.2963,0.141952
1351.1600,0.144979
1353.0236,0.144184
1354.8873,0.146524
1356.7510,0.147270
1358.6146,0.136158
1360.4783,0.117516
1362.3420,0.103289
1364.2056,0.096700
1366.0693,0.094825
1367.9330,0.096660
1369.7967,0.100100
1371.6603,0.102802
1373.5240,0.108092
1375.3877,0.114805
1377.2513,0.118313
1379.1150,0.122598
1380.9787,0.128205
1382.8423,0.133433
1384.7060,0.138690
1386.5697,0.147282
1388.4333,0.158051
1390.2970,0.162877
1392.1607,0.165972
1394.0244,0.171647
1395.8880,0.176105
1397.7517,0.174854
1399.6154,0.173010
1401.4790,0.168943
1403.3427,0.165104
1405.2064,0.161037
1407.0700,0.152378
1408.9337,0.141691
1410.7974,0.131738
1412.6610,0.123051
1414.5247,0.115468
1416.3884,0.108825
1418.2520,0.105067
1420.1157,0.103980
1421.9794,0.099717
1423.8431,0.091081
1425.7067,0.078148
1427.5704,0.068130
1429.4341,0.062369
1431.2977,0.059868
1433.1614,0.058994
1435.0251,0.060102
1436.8887,0.065380
1438.7524,0.068070
1440.6161,0.068195
1442.4797,0.070765
1444.3434,0.074899
1446.2071,0.080523
1448.0707,0.087691
1449.9344,0.089890
1451.7981,0.088142
1453.6618,0.090135
1455.5254,0.097861
1457.3891,0.102450
1459.2528,0.082825
1461.1164,0.068511
1462.9801,0.062813
1464.8438,0.062954
1466.7074,0.063252
1468.5711,0.061336
1470.4348,0.060469
1472.2984,0.063905
1474.1621,0.067793
1476.0258,0.067962
1477.8895,0.067748
1479.7531,0.067812
1481.6168,0.069619
1483.4805,0.071191
1485.3441,0.071948
1487.2078,0.073485
1489.0715,0.076095
1490.9351,0.078074
1492.7988,0.075342
1494.6625,0.073851
1496.5261,0.077486
1498.3898,0.082192
1500.2535,0.082225
1502.1171,0.080076
1503.9808,0.078014
1505.8445,0.081710
1507.7082,0.098365
1509.5718,0.096723
1511.4355,0.092912
1513.2992,0.091795
1515.1628,0.091979
1517.0265,0.095020
1518.8902,0.095600
1520.7538,0.097895
1522.6175,0.103647
1524.4812,0.102866
1526.3448,0.104231
1528.2085,0.106247
1530.0722,0.104884
1531.9359,0.105351
1533.7995,0.110609
1535.6632,0.110010
1537.5269,0.106542
1539.3905,0.111530
1541.2542,0.126269
1543.1179,0.127368
1544.9815,0.128718
1546.8452,0.128500
1548.7089,0.129167
1550.5725,0.133933
1552.4362,0.136321
1554.2999,0.137534
1556.1635,0.138565
1558.0272,0.145616
1559.8909,0.171277
1561.7546,0.162927
1563.6182,0.157964
1565.4819,0.160444
1567.3456,0.163220
1569.2092,0.169381
1571.0729,0.176157
1572.9366,0.174012
1574.8002,0.175083
1576.6639,0.185176
1578.5276,0.187875
1580.3912,0.185411
1582.2549,0.185545
1584.1186,0.185331
1585.9822,0.184028
1587.8459,0.182010
1589.7096,0.179405
1591.5733,0.175764
1593.4369,0.172110
1595.3006,0.168352
1597.1643,0.164176
1599.0279,0.159812
1600.8916,0.156036
1602.7553,0.152418
1604.6189,0.148846
1606.4826,0.145310
1608.3463,0.142365
1610.2099,0.139067
1612.0736,0.135081
1613.9373,0.130513
1615.8010,0.127611
1617.6646,0.122826
1619.5283,0.114989
1621.3920,0.109353
1623.2556,0.105719
1625.1193,0.100916
1626.9830,0.096370
1628.8466,0.091682
1630.7103,0.086409
1632.5740,0.081783
1634.4376,0.079013
1636.3013,0.078919
1638.1650,0.078123
1640.0286,0.076907
1641.8923,0.076828
1643.7560,0.077615
1645.6197,0.080624
1647.4833,0.087374
1649.3470,0.089484
1651.2107,0.089415
1653.0743,0.098320
1654.9380,0.108997
1656.8017,0.105183
1658.6653,0.103712
1660.5290,0.103531
1662.3927,0.103108
1664.2563,0.100207
1666.1200,0.094757
1667.9837,0.088921
1669.8474,0.081545
1671.7110,0.073485
1673.5747,0.067784
1675.4384,0.063748
1677.3020,0.060348
1679.1657,0.058648
1681.0294,0.058226
1682.8930,0.059395
1684.7567,0.063942
1686.6204,0.063859
1688.4840,0.061954
1690.3477,0.060860
1692.2114,0.058748
1694.0750,0.056598
1695.9387,0.055274
1697.8024,0.052851
1699.6661,0.051220
1701.5297,0.048324
1703.3934,0.043982
1705.2571,0.040391
1707.1207,0.035968
1708.9844,0.032213
1710.8481,0.029093
1712.7117,0.026549
1714.5754,0.025003
1716.4391,0.024285
1718.3027,0.024040
1720.1664,0.023055
1722.0301,0.021980
1723.8937,0.021026
1725.7574,0.019879
1727.6211,0.018652
1729.4848,0.017480
1731.3484,0.016510
1733.2121,0.016123
1735.0758,0.016242
1736.9394,0.015226
1738.8031,0.014555
1740.6668,0.014581
1742.5304,0.014470
1744.3941,0.013995
1746.2578,0.013485
1748.1214,0.013394
1749.9851,0.013610
1751.8488,0.013702
1753.7125,0.013363
1755.5761,0.012962
1757.4398,0.013090
1759.3035,0.013134
1761.1671,0.013252
1763.0308,0.013528
1764.8945,0.013105
1766.7581,0.012641
1768.6218,0.012650
1770.4855,0.012751
1772.3491,0.013036
1774.2128,0.013024
1776.0765,0.012616
1777.9401,0.012356
1779.8038,0.012358
1781.6675,0.012457
1783.5312,0.012433
1785.3948,0.012483
1787.2585,0.012425
1789.1222,0.012216
1790.9858,0.012450
1792.8495,0.013104
1794.7132,0.013010
1796.5768,0.012751
1798.4405,0.012911
1800.3042,0.013219
1802.1678,0.013593
1804.0315,0.013683
1805.8952,0.013478
1807.7589,0.013254
1809.6225,0.013259
1811.4862,0.013577
1813.3499,0.013575
1815.2135,0.013092
1817.0772,0.012880
1818.9409,0.013013
1820.8045,0.013131
1822.6682,0.013148
1824.5319,0.013114
1826.3955,0.013162
1828.2592,0.013124
1830.1229,0.013301
1831.9865,0.013312
1833.8502,0.012895
1835.7139,0.012710
1837.5776,0.012849
1839.4412,0.012822
1841.3049,0.012624
1843.1686,0.012838
1845.0322,0.013196
1846.8959,0.013212
1848.7596,0.013261
1850.6232,0.013178
1852.4869,0.012926
1854.3506,0.012986
1856.2142,0.013063
1858.0779,0.012955
1859.9416,0.012989
1861.8052,0.013115
1863.6689,0.012924
1865.5326,0.012663
1867.3963,0.012888
1869.2599,0.013285
1871.1236,0.013206
1872.9873,0.013196
1874.8509,0.013289
1876.7146,0.013373
1878.5783,0.013833
1880.4419,0.013983
1882.3056,0.013573
1884.1693,0.013327
1886.0329,0.013372
1887.8966,0.013693
1889.7603,0.013784
1891.6240,0.013302
1893.4876,0.012784
1895.3513,0.012480
1897.2150,0.012606
1899.0786,0.012743
1900.9423,0.012803
1902.8060,0.012959
1904.6696,0.012837
1906.5333,0.012889
1908.3970,0.013279
1910.2606,0.013349
1912.1243,0.013221
1913.9880,0.013121
1915.8516,0.012938
1917.7153,0.013133
1919.5790,0.013421
1921.4427,0.013160
1923.3063,0.012736
1925.1700,0.012106
1927.0337,0.011736
1928.8973,0.012006
1930.7610,0.012431
1932.6247,0.012500
1934.4883,0.012203
1936.3520,0.012026
1938.2157,0.011578
1940.0793,0.011112
1941.9430,0.010657
1943.8067,0.009478
1945.6704,0.009670
1947.5340,0.010838
1949.3977,0.010467
1951.2614,0.009889
1953.1250,0.010057
1954.9887,0.010066
1956.8524,0.009634
1958.7160,0.008840
1960.5797,0.008435
1962.4434,0.008241
1964.3070,0.007997
1966.1707,0.007706
1968.0344,0.006977
1969.8980,0.005798
1971.7617,0.004452
1973.6254,0.003846
1975.4891,0.003387
1977.3527,0.003838
1979.2164,0.006034
1981.0801,0.006880
1982.9437,0.006122
1984.8074,0.007239
1986.6711,0.008941
1988.5347,0.009116
1990.3984,0.008673
1992.2621,0.007906
1994.1257,0.007348
1995.9894,0.007864
1997.8531,0.008485
1999.7167,0.008692
2001.5804,0.008823
2003.4441,0.008312
2005.3078,0.007140
2007.1714,0.006144
2009.0351,0.006324
2010.8988,0.007112
2012.7624,0.007132
2014.6261,0.006794
2016.4898,0.006785
2018.3534,0.006932
2020.2171,0.006707
2022.0808,0.006593
2023.9444,0.007148
2025.8081,0.006992
2027.6718,0.006291
2029.5355,0.006998
2031.3991,0.007210
2033.2628,0.006753
2035.1265,0.007656
2036.9901,0.008908
2038.8538,0.009581
2040.7175,0.009581
2042.5811,0.010223
2044.4448,0.011454
2046.3085,0.013132
2048.1721,0.014629
2050.0358,0.015028
2051.8995,0.015232
2053.7631,0.015957
2055.6268,0.016756
2057.4905,0.016684
2059.3542,0.016063
2061.2178,0.016178
2063.0815,0.016769
2064.9452,0.016566
2066.8088,0.016494
2068.6725,0.017075
2070.5362,0.017660
2072.3998,0.017868
2074.2635,0.017770
2076.1272,0.018297
2077.9908,0.019268
2079.8545,0.019557
2081.7182,0.019061
2083.5819,0.018691
2085.4455,0.018871
2087.3092,0.019205
2089.1729,0.019366
2091.0365,0.018922
2092.9002,0.018306
2094.7639,0.018173
2096.6275,0.018441
2098.4912,0.018617
2100.3549,0.018932
2102.2185,0.019357
2104.0822,0.019225
2105.9459,0.019066
2107.8095,0.018936
2109.6732,0.018510
2111.5369,0.018415
2113.4006,0.018178
2115.2642,0.017392
2117.1279,0.017291
2118.9916,0.017822
2120.8552,0.017909
2122.7189,0.017494
2124.5826,0.017094
2126.4462,0.016884
2128.3099,0.016361
2130.1736,0.015233
2132.0372,0.014531
2133.9009,0.014530
2135.7646,0.014361
2137.6282,0.014339
2139.4919,0.014130
2141.3556,0.013269
2143.2193,0.012357
2145.0829,0.011305
2146.9466,0.010573
2148.8103,0.010460
2150.6739,0.010449
2152.5376,0.009430
2154.4013,0.007389
2156.2649,0.006250
2158.1286,0.006056
2159.9923,0.007088
2161.8559,0.009081
2163.7196,0.009965
2165.5833,0.009581
2167.4470,0.008714
2169.3106,0.008465
2171.1743,0.008524
2173.0380,0.009022
2174.9016,0.010345
2176.7653,0.011659
2178.6290,0.012200
2180.4926,0.012831
2182.3563,0.013598
2184.2200,0.012881
2186.0836,0.012197
2187.9473,0.013320
2189.8110,0.014038
2191.6746,0.014276
2193.5383,0.015185
2195.4020,0.015251
2197.2657,0.014584
2199.1293,0.014302
2200.9930,0.014689
2202.8567,0.015237
2204.7203,0.015886
2206.5840,0.016084
2208.4477,0.016235
2210.3113,0.017179
2212.1750,0.017474
2214.0387,0.016904
2215.9023,0.017620
2217.7660,0.018575
2219.6297,0.018136
2221.4934,0.018473
2223.3570,0.019147
2225.2207,0.019640
2227.0844,0.020119
2228.9480,0.019926
2230.8117,0.019772
2232.6754,0.020072
2234.5390,0.019902
2236.4027,0.019106
2238.2664,0.019260
2240.1300,0.020010
2241.9937,0.020758
2243.8574,0.021507
2245.7210,0.021961
2247.5847,0.022300
2249.4484,0.022164
2251.3121,0.021557
2253.1757,0.021662
2255.0394,0.022587
2256.9031,0.023345
2258.7667,0.023162
2260.6304,0.022686
2262.4941,0.023134
2264.3577,0.024082
2266.2214,0.024333
2268.0851,0.024201
2269.9487,0.024413
2271.8124,0.025147
2273.6761,0.025885
2275.5397,0.026132
2277.4034,0.026434
2279.2671,0.027268
2281.1308,0.027970
2282.9944,0.028069
2284.8581,0.028318
2286.7218,0.028668
2288.5854,0.028424
2290.4491,0.028228
2292.3128,0.028330
2294.1764,0.028426
2296.0401,0.028461
2297.9038,0.028545
2299.7674,0.028801
2301.6311,0.029165
2303.4948,0.029386
2305.3585,0.029348
2307.2221,0.029549
2309.0858,0.029662
2310.9495,0.029478
2312.8131,0.029546
2314.6768,0.029722
2316.5405,0.029727
2318.4041,0.029860
2320.2678,0.030336
2322.1315,0.030762
2323.9951,0.030804
2325.8588,0.030322
2327.7225,0.029581
2329.5861,0.029220
2331.4498,0.029386
2333.3135,0.029374
2335.1772,0.029111
2337.0408,0.029412
2338.9045,0.029727
2340.7682,0.029811
2342.6318,0.030503
2344.4955,0.031067
2346.3592,0.031112
2348.2228,0.030594
2350.0865,0.029631
2351.9502,0.028917
2353.8138,0.029066
2355.6775,0.029928
2357.5412,0.030390
2359.4049,0.030325
2361.2685,0.030508
2363.1322,0.030839
2364.9959,0.030991
2366.8595,0.031264
2368.7232,0.031961
2370.5869,0.032375
2372.4505,0.032508
2374.3142,0.032822
2376.1779,0.032996
2378.0415,0.033109
2379.9052,0.033183
2381.7689,0.032810
2383.6325,0.032732
2385.4962,0.032926
2387.3599,0.032799
2389.2236,0.032633
2391.0872,0.032859
2392.9509,0.033101
2394.8146,0.033103
2396.6782,0.033371
2398.5419,0.033428
2400.4056,0.033202
2402.2692,0.033202
2404.1329,0.033380
2405.9966,0.033567
2407.8602,0.033676
2409.7239,0.033910
2411.5876,0.034191
2413.4512,0.034085
2415.3149,0.033797
2417.1786,0.033806
2419.0423,0.034159
2420.9059,0.034251
2422.7696,0.034086
2424.6333,0.034280
2426.4969,0.034333
2428.3606,0.034229
2430.2243,0.034530
2432.0879,0.034806
2433.9516,0.034747
2435.8153,0.034882
2437.6789,0.034907
2439.5426,0.034643
2441.4063,0.034921
2443.2700,0.035467
2445.1336,0.035566
2446.9973,0.035524
2448.8610,0.035382
2450.7246,0.035410
2452.5883,0.035513
2454.4520,0.035502
2456.3156,0.035636
2458.1793,0.035878
2460.0430,0.035782
2461.9066,0.035720
2463.7703,0.035738
2465.6340,0.035843
2467.4976,0.036282
2469.3613,0.036258
2471.2250,0.035916
2473.0887,0.036070
2474.9523,0.036372
2476.8160,0.036550
2478.6797,0.036748
2480.5433,0.036896
2482.4070,0.036965
2484.2707,0.037079
2486.1343,0.037092
2487.9980,0.036911
2489.8617,0.036852
2491.7253,0.037321
2493.5890,0.037383
2495.4527,0.037077
2497.3164,0.036856
2499.1800,0.036905
2501.0437,0.037168
2502.9074,0.037202
2504.7710,0.037367
2506.6347,0.037809
2508.4984,0.037924
2510.3620,0.037945
2512.2257,0.037720
2514.0894,0.037726
2515.9530,0.038336
2517.8167,0.038593
2519.6804,0.038217
2521.5440,0.038004
2523.4077,0.037928
2525.2714,0.037600
2527.1351,0.037613
