Wavenumber,Intensity
650.4205,0.245832
652.2841,0.238837
654.1478,0.233551
656.0115,0.232080
657.8751,0.230618
659.7388,0.226888
661.6025,0.223227
663.4661,0.220158
665.3298,0.216382
667.1935,0.215160
669.0571,0.218660
670.9208,0.215963
672.7845,0.215556
674.6481,0.215230
676.5118,0.215806
678.3755,0.217456
680.2392,0.217646
682.1028,0.216406
683.9665,0.215924
685.8302,0.215452
687.6938,0.215579
689.5575,0.216481
691.4212,0.218411
693.2848,0.217922
695.1485,0.218580
697.0122,0.220600
698.8758,0.222314
700.7395,0.223641
702.6032,0.223643
704.4669,0.220848
706.3305,0.216438
708.1942,0.209848
710.0579,0.201948
711.9215,0.192845
713.7852,0.183790
715.6489,0.175996
717.5125,0.169261
719.3762,0.162427
721.2399,0.157176
723.1035,0.152489
724.9672,0.147578
726.8309,0.143021
728.6945,0.138655
730.5582,0.134363
732.4219,0.130357
734.2856,0.126574
736.1492,0.123859
738.0129,0.122702
739.8766,0.123576
741.7402,0.126200
743.6039,0.128734
745.4676,0.129397
747.3312,0.129586
749.1949,0.130102
751.0586,0.130159
752.9222,0.129912
754.7859,0.129859
756.6496,0.129482
758.5132,0.128857
760.3769,0.128377
762.2406,0.127730
764.1043,0.126611
765.9679,0.125544
767.8316,0.124262
769.6953,0.122755
771.5589,0.121436
773.4226,0.120120
775.2863,0.119221
777.1499,0.118932
779.0136,0.118250
780.8773,0.117885
782.7409,0.118422
784.6046,0.119303
786.4683,0.120558
788.3320,0.121846
790.1956,0.122922
792.0593,0.124401
793.9230,0.126068
795.7866,0.127545
797.6503,0.128932
799.5140,0.130118
801.3776,0.130784
803.2413,0.131247
805.1050,0.130827
806.9686,0.129770
808.8323,0.128106
810.6960,0.125709
812.5596,0.123130
814.4233,0.120717
816.2870,0.118229
818.1507,0.115785
820.0143,0.113510
821.8780,0.111843
823.7417,0.111403
825.6053,0.112138
827.4690,0.114168
829.3327,0.115799
831.1963,0.111595
833.0600,0.101581
834.9237,0.092940
836.7873,0.089317
838.6510,0.088704
840.5147,0.088671
842.3784,0.088723
844.2420,0.089091
846.1057,0.089358
847.9694,0.089543
849.8330,0.089614
851.6967,0.089326
853.5604,0.089189
855.4240,0.089486
857.2877,0.089750
859.1514,0.089703
861.0150,0.089390
862.8787,0.088606
864.7424,0.087456
866.6060,0.086035
868.4697,0.084580
870.3334,0.083202
872.1971,0.082071
874.0607,0.081334
875.9244,0.080914
877.7881,0.081036
879.6517,0.081624
881.5154,0.082367
883.3791,0.083359
885.2427,0.084614
887.1064,0.086007
888.9701,0.087445
890.8337,0.088915
892.6974,0.090481
894.5611,0.091942
896.4247,0.093441
898.2884,0.095133
900.1521,0.097210
902.0158,0.099826
903.8794,0.103098
905.7431,0.107238
907.6068,0.112511
909.4704,0.118734
911.3341,0.126095
913.1978,0.134578
915.0614,0.139631
916.9251,0.133670
918.7888,0.119829
920.6524,0.108842
922.5161,0.103964
924.3798,0.102535
926.2435,0.102372
928.1071,0.102643
929.9708,0.103008
931.8345,0.103229
933.6981,0.103368
935.5618,0.103396
937.4255,0.103262
939.2891,0.103047
941.1528,0.102970
943.0165,0.103152
944.8801,0.103695
946.7438,0.104831
948.6075,0.106493
950.4711,0.108573
952.3348,0.111109
954.1985,0.114115
956.0622,0.117485
957.9258,0.121232
959.7895,0.125335
961.6532,0.129689
963.5168,0.134295
965.3805,0.139369
967.2442,0.145438
969.1078,0.152338
970.9715,0.159549
972.8352,0.167630
974.6988,0.178112
976.5625,0.192763
978.4262,0.214473
980.2899,0.242412
982.1535,0.255214
984.0172,0.230921
985.8809,0.197425
987.7445,0.183351
989.6082,0.182596
991.4719,0.184408
993.3355,0.185980
995.1992,0.186756
997.0629,0.186935
998.9265,0.186831
1000.7902,0.186523
1002.6539,0.186077
1004.5175,0.185923
1006.3812,0.185987
1008.2449,0.186011
1010.1086,0.186017
1011.9722,0.186128
1013.8359,0.186074
1015.6996,0.185502
1017.5632,0.184389
1019.4269,0.182800
1021.2906,0.180680
1023.1542,0.178198
1025.0179,0.175570
1026.8816,0.173050
1028.7452,0.170782
1030.6089,0.168793
1032.4726,0.167391
1034.3362,0.166861
1036.1999,0.167085
1038.0636,0.167886
1039.9273,0.169179
1041.7909,0.170791
1043.6546,0.172369
1045.5183,0.173677
1047.3819,0.173830
1049.2456,0.170697
1051.1093,0.162331
1052.9729,0.150013
1054.8366,0.138031
1056.7003,0.129319
1058.5639,0.123872
1060.4276,0.120615
1062.2913,0.118657
1064.1550,0.117925
1066.0186,0.119019
1067.8823,0.122379
1069.7460,0.127947
1071.6096,0.134827
1073.4733,0.141329
1075.3370,0.145928
1077.2006,0.148043
1079.0643,0.148252
1080.9280,0.147505
1082.7916,0.146362
1084.6553,0.145274
1086.5190,0.144736
1088.3826,0.144682
1090.2463,0.145223
1092.1100,0.146961
1093.9737,0.150032
1095.8373,0.154241
1097.7010,0.159559
1099.5647,0.165713
1101.4283,0.171928
1103.2920,0.177184
1105.1557,0.180276
1107.0193,0.179802
1108.8830,0.174652
1110.7467,0.164969
1112.6103,0.152606
1114.4740,0.140014
1116.3377,0.128924
1118.2014,0.120108
1120.0650,0.113773
1121.9287,0.109507
1123.7924,0.106576
1125.6560,0.104279
1127.5197,0.101995
1129.3834,0.099729
1131.2470,0.097881
1133.1107,0.096800
1134.9744,0.096676
1136.8380,0.097571
1138.7017,0.099238
1140.5654,0.101250
1142.4290,0.103409
1144.2927,0.105431
1146.1564,0.106886
1148.0201,0.107556
1149.8837,0.107587
1151.7474,0.106994
1153.6111,0.105677
1155.4747,0.103796
1157.3384,0.101602
1159.2021,0.099255
1161.0657,0.096903
1162.9294,0.094863
1164.7931,0.093338
1166.6567,0.092536
1168.5204,0.092737
1170.3841,0.093571
1172.2477,0.093717
1174.1114,0.091625
1175.9751,0.086846
1177.8388,0.080941
1179.7024,0.076055
1181.5661,0.073195
1183.4298,0.071989
1185.2934,0.071677
1187.1571,0.071875
1189.0208,0.072261
1190.8844,0.072723
1192.7481,0.073322
1194.6118,0.074015
1196.4754,0.074721
1198.3391,0.075382
1200.2028,0.076056
1202.0665,0.076788
1203.9301,0.077415
1205.7938,0.077896
1207.6575,0.078334
1209.5211,0.078663
1211.3848,0.078910
1213.2485,0.079242
1215.1121,0.079651
1216.9758,0.080112
1218.8395,0.080624
1220.7031,0.081316
1222.5668,0.082185
1224.4305,0.083035
1226.2941,0.083836
1228.1578,0.084640
1230.0215,0.085417
1231.8852,0.086175
1233.7488,0.086977
1235.6125,0.087805
1237.4762,0.088534
1239.3398,0.089173
1241.2035,0.089785
1243.0672,0.090326
1244.9308,0.090860
1246.7945,0.091411
1248.6582,0.091949
1250.5218,0.092538
1252.3855,0.093144
1254.2492,0.093721
1256.1129,0.094402
1257.9765,0.095198
1259.8402,0.096226
1261.7039,0.097450
1263.5675,0.098569
1265.4312,0.099398
1267.2949,0.099849
1269.1585,0.099978
1271.0222,0.100023
1272.8859,0.100246
1274.7495,0.100808
1276.6132,0.101774
1278.4769,0.103053
1280.3405,0.104665
1282.2042,0.106500
1284.0679,0.108435
1285.9316,0.110722
1287.7952,0.113475
1289.6589,0.116438
1291.5226,0.119567
1293.3862,0.123184
1295.2499,0.127571
1297.1136,0.132830
1298.9772,0.138871
1300.8409,0.146024
1302.7046,0.153733
1304.5682,0.159252
1306.4319,0.158637
1308.2956,0.148277
1310.1592,0.129270
1312.0229,0.109800
1313.8866,0.097199
1315.7503,0.092514
1317.6139,0.092697
1319.4776,0.095118
1321.3413,0.097981
1323.2049,0.100902
1325.0686,0.104033
1326.9323,0.107202
1328.7959,0.110327
1330.6596,0.113149
1332.5233,0.115226
1334.3869,0.116360
1336.2506,0.117123
1338.1143,0.118676
1339.9780,0.120815
1341.8416,0.121289
1343.7053,0.120809
1345.5690,0.121142
1347.4326,0.121970
1349.2963,0.123134
1351.1600,0.124515
1353.0236,0.126167
1354.8873,0.128394
1356.7510,0.130612
1358.6146,0.132202
1360.4783,0.134523
1362.3420,0.139222
1364.2056,0.143344
1366.0693,0.144751
1367.9330,0.147287
1369.7967,0.150450
1371.6603,0.152706
1373.5240,0.156671
1375.3877,0.161484
1377.2513,0.164093
1379.1150,0.167593
1380.9787,0.172352
1382.8423,0.177061
1384.7060,0.182144
1386.5697,0.189819
1388.4333,0.198869
1390.2970,0.202875
1392.1607,0.204316
1394.0244,0.204968
1395.8880,0.201091
1397.7517,0.193460
1399.6154,0.184761
1401.4790,0.175638
1403.3427,0.167176
1405.2064,0.155192
1407.0700,0.138275
1408.9337,0.121403
1410.7974,0.106390
1412.6610,0.095924
1414.5247,0.091005
1416.3884,0.090750
1418.2520,0.095931
1420.1157,0.104728
1421.9794,0.107934
1423.8431,0.105661
1425.7067,0.097407
1427.5704,0.088091
1429.4341,0.082436
1431.2977,0.080163
1433.1614,0.079477
1435.0251,0.080563
1436.8887,0.084543
1438.7524,0.086578
1440.6161,0.086571
1442.4797,0.087630
1444.3434,0.088631
1446.2071,0.089719
1448.0707,0.090522
1449.9344,0.088897
1451.7981,0.085726
1453.6618,0.082593
1455.5254,0.081811
1457.3891,0.086587
1459.2528,0.088382
1461.1164,0.086021
1462.9801,0.085105
1464.8438,0.085570
1466.7074,0.084233
1468.5711,0.081071
1470.4348,0.078984
1472.2984,0.079342
1474.1621,0.080163
1476.0258,0.079221
1477.8895,0.078495
1479.7531,0.077879
1481.6168,0.078016
1483.4805,0.077896
1485.3441,0.077525
1487.2078,0.078174
1489.0715,0.080605
1490.9351,0.082713
1492.7988,0.081843
1494.6625,0.081196
1496.5261,0.083568
1498.3898,0.086327
1500.2535,0.086648
1502.1171,0.085474
1503.9808,0.084313
1505.8445,0.086801
1507.7082,0.095533
1509.5718,0.095188
1511.4355,0.093850
1513.2992,0.093854
1515.1628,0.094461
1517.0265,0.096221
1518.8902,0.097208
1520.7538,0.098821
1522.6175,0.102352
1524.4812,0.102267
1526.3448,0.103371
1528.2085,0.104367
1530.0722,0.104019
1531.9359,0.105067
1533.7995,0.108220
1535.6632,0.107761
1537.5269,0.106239
1539.3905,0.110228
1541.2542,0.118608
1543.1179,0.119532
1544.9815,0.120665
1546.8452,0.121293
1548.7089,0.122312
1550.5725,0.125040
1552.4362,0.126334
1554.2999,0.126869
1556.1635,0.128293
1558.0272,0.134132
1559.8909,0.149927
1561.7546,0.145955
1563.6182,0.143326
1565.4819,0.145094
1567.3456,0.147470
1569.2092,0.151733
1571.0729,0.156385
1572.9366,0.156108
1574.8002,0.158895
1576.6639,0.167381
1578.5276,0.170991
1580.3912,0.170917
1582.2549,0.173345
1584.1186,0.175912
1585.9822,0.178112
1587.8459,0.179296
1589.7096,0.180100
1591.5733,0.180328
1593.4369,0.180124
1595.3006,0.179373
1597.1643,0.178105
1599.0279,0.176053
1600.8916,0.174067
1602.7553,0.172199
1604.6189,0.170202
1606.4826,0.168263
1608.3463,0.166946
1610.2099,0.165150
1612.0736,0.162070
1613.9373,0.158292
1615.8010,0.155206
1617.6646,0.150226
1619.5283,0.143027
1621.3920,0.137626
1623.2556,0.132546
1625.1193,0.125744
1626.9830,0.118543
1628.8466,0.110294
1630.7103,0.101319
1632.5740,0.093627
1634.4376,0.087205
1636.3013,0.081380
1638.1650,0.076866
1640.0286,0.074809
1641.8923,0.073596
1643.7560,0.073517
1645.6197,0.075219
1647.4833,0.078834
1649.3470,0.079106
1651.2107,0.079755
1653.0743,0.086177
1654.9380,0.091535
1656.8017,0.089139
1658.6653,0.088783
1660.5290,0.088833
1662.3927,0.088970
1664.2563,0.087709
1666.1200,0.085206
1667.9837,0.083524
1669.8474,0.082895
1671.7110,0.081725
1673.5747,0.081582
1675.4384,0.083999
1677.3020,0.086504
1679.1657,0.087818
1681.0294,0.090935
1682.8930,0.095180
1684.7567,0.102958
1686.6204,0.104682
1688.4840,0.102675
1690.3477,0.100918
1692.2114,0.097805
1694.0750,0.094442
1695.9387,0.091823
1697.8024,0.088420
1699.6661,0.085842
1701.5297,0.080359
1703.3934,0.074002
1705.2571,0.067235
1707.1207,0.058960
1708.9844,0.052466
1710.8481,0.047625
1712.7117,0.043723
1714.5754,0.041344
1716.4391,0.039965
1718.3027,0.039617
1720.1664,0.038238
1722.0301,0.036972
1723.8937,0.035326
1725.7574,0.033282
1727.6211,0.031200
1729.4848,0.029457
1731.3484,0.027877
1733.2121,0.027368
1735.0758,0.026707
1736.9394,0.025590
1738.8031,0.025205
1740.6668,0.025297
1742.5304,0.024813
1744.3941,0.024572
1746.2578,0.024111
1748.1214,0.023821
1749.9851,0.023543
1751.8488,0.023482
1753.7125,0.023112
1755.5761,0.022912
1757.4398,0.022642
1759.3035,0.022429
1761.1671,0.022610
1763.0308,0.022854
1764.8945,0.022323
1766.7581,0.022163
1768.6218,0.022193
1770.4855,0.022234
1772.3491,0.022437
1774.2128,0.022603
1776.0765,0.022262
1777.9401,0.022252
1779.8038,0.022160
1781.6675,0.022312
1783.5312,0.022290
1785.3948,0.022402
1787.2585,0.022275
1789.1222,0.022171
1790.9858,0.022458
1792.8495,0.022764
1794.7132,0.022294
1796.5768,0.022165
1798.4405,0.022218
1800.3042,0.022538
1802.1678,0.022797
1804.0315,0.022717
1805.8952,0.022481
1807.7589,0.022565
1809.6225,0.022576
1811.4862,0.022832
1813.3499,0.022684
1815.2135,0.022368
1817.0772,0.022150
1818.9409,0.022341
1820.8045,0.022338
1822.6682,0.022301
1824.5319,0.022416
1826.3955,0.022557
1828.2592,0.022142
1830.1229,0.022115
1831.9865,0.022164
1833.8502,0.022217
1835.7139,0.022188
1837.5776,0.022108
1839.4412,0.021988
1841.3049,0.021963
1843.1686,0.022127
1845.0322,0.022652
1846.8959,0.022255
1848.7596,0.022080
1850.6232,0.021901
1852.4869,0.022034
1854.3506,0.022346
1856.2142,0.022401
1858.0779,0.022114
1859.9416,0.022024
1861.8052,0.022151
1863.6689,0.022156
1865.5326,0.021885
1867.3963,0.021947
1869.2599,0.022092
1871.1236,0.022053
1872.9873,0.022087
1874.8509,0.022361
1876.7146,0.022482
1878.5783,0.022575
1880.4419,0.022092
1882.3056,0.022004
1884.1693,0.022361
1886.0329,0.022333
1887.8966,0.021809
1889.7603,0.021839
1891.6240,0.022079
1893.4876,0.022276
1895.3513,0.022235
1897.2150,0.022095
1899.0786,0.021668
1900.9423,0.021806
1902.8060,0.022199
1904.6696,0.022251
1906.5333,0.022259
1908.3970,0.022348
1910.2606,0.022067
1912.1243,0.021926
1913.9880,0.021676
1915.8516,0.021539
1917.7153,0.021744
1919.5790,0.022081
1921.4427,0.021500
1923.3063,0.021444
1925.1700,0.021213
1927.0337,0.021376
1928.8973,0.021604
1930.7610,0.021587
1932.6247,0.021332
1934.4883,0.021171
1936.3520,0.020438
1938.2157,0.020278
1940.0793,0.020042
1941.9430,0.019509
1943.8067,0.018572
1945.6704,0.019444
1947.5340,0.019755
1949.3977,0.019055
1951.2614,0.018715
1953.1250,0.019145
1954.9887,0.018179
1956.8524,0.017579
1958.7160,0.016421
1960.5797,0.015868
1962.4434,0.015145
1964.3070,0.014878
1966.1707,0.013932
1968.0344,0.012720
1969.8980,0.012825
1971.7617,0.013471
1973.6254,0.012562
1975.4891,0.012203
1977.3527,0.011459
1979.2164,0.012962
1981.0801,0.013378
1982.9437,0.013832
1984.8074,0.014451
1986.6711,0.015342
1988.5347,0.015155
1990.3984,0.015790
1992.2621,0.016504
1994.1257,0.016419
1995.9894,0.016396
1997.8531,0.016970
1999.7167,0.016570
2001.5804,0.015513
2003.4441,0.014938
2005.3078,0.014951
2007.1714,0.014638
2009.0351,0.014537
2010.8988,0.013727
2012.7624,0.014547
2014.6261,0.013748
2016.4898,0.013204
2018.3534,0.011848
2020.2171,0.011381
2022.0808,0.011861
2023.9444,0.012571
2025.8081,0.012260
2027.6718,0.013054
2029.5355,0.013011
2031.3991,0.013603
2033.2628,0.013823
2035.1265,0.014759
2036.9901,0.013910
2038.8538,0.014459
2040.7175,0.015431
2042.5811,0.016294
2044.4448,0.017005
2046.3085,0.017755
2048.1721,0.018467
2050.0358,0.018753
2051.8995,0.019139
2053.7631,0.020065
2055.6268,0.020300
2057.4905,0.021260
2059.3542,0.021530
2061.2178,0.022002
2063.0815,0.022380
2064.9452,0.022864
2066.8088,0.022640
2068.6725,0.022766
2070.5362,0.023335
2072.3998,0.023424
2074.2635,0.023432
2076.1272,0.023623
2077.9908,0.023238
2079.8545,0.023857
2081.7182,0.024980
2083.5819,0.025452
2085.4455,0.025370
2087.3092,0.025197
2089.1729,0.025542
2091.0365,0.025804
2092.9002,0.024730
2094.7639,0.024517
2096.6275,0.025306
2098.4912,0.025959
2100.3549,0.025852
2102.2185,0.026103
2104.0822,0.025771
2105.9459,0.025885
2107.8095,0.025807
2109.6732,0.025716
2111.5369,0.026428
2113.4006,0.026737
2115.2642,0.026759
2117.1279,0.026543
2118.9916,0.025684
2120.8552,0.025764
2122.7189,0.026328
2124.5826,0.026385
2126.4462,0.025790
2128.3099,0.025453
2130.1736,0.024854
2132.0372,0.024402
2133.9009,0.024554
2135.7646,0.024661
2137.6282,0.023264
2139.4919,0.022882
2141.3556,0.022013
2143.2193,0.021390
2145.0829,0.021664
2146.9466,0.021208
2148.8103,0.020422
2150.6739,0.019503
2152.5376,0.018245
2154.4013,0.016689
2156.2649,0.013073
2158.1286,0.011705
2159.9923,0.014023
2161.8559,0.016534
2163.7196,0.015590
2165.5833,0.016257
2167.4470,0.016273
2169.3106,0.017172
2171.1743,0.018032
2173.0380,0.018838
2174.9016,0.018591
2176.7653,0.017765
2178.6290,0.018172
2180.4926,0.020428
2182.3563,0.020595
2184.2200,0.020892
2186.0836,0.020573
2187.9473,0.020094
2189.8110,0.019743
2191.6746,0.020709
2193.5383,0.021518
2195.4020,0.022956
2197.2657,0.023553
2199.1293,0.023608
2200.9930,0.023014
2202.8567,0.023858
2204.7203,0.024414
2206.5840,0.024172
2208.4477,0.024320
2210.3113,0.024423
2212.1750,0.024616
2214.0387,0.024279
2215.9023,0.023822
2217.7660,0.024682
2219.6297,0.025257
2221.4934,0.025627
2223.3570,0.025611
2225.2207,0.026356
2227.0844,0.027030
2228.9480,0.026531
2230.8117,0.026207
2232.6754,0.027338
2234.5390,0.027695
2236.4027,0.027293
2238.2664,0.027328
2240.1300,0.028117
2241.9937,0.028184
2243.8574,0.027597
2245.7210,0.027974
2247.5847,0.029036
2249.4484,0.029366
2251.3121,0.029677
2253.1757,0.030200
2255.0394,0.030081
2256.9031,0.029994
2258.7667,0.030390
2260.6304,0.030441
2262.4941,0.030708
2264.3577,0.031072
2266.2214,0.031553
2268.0851,0.031330
2269.9487,0.031374
2271.8124,0.031989
2273.6761,0.032567
2275.5397,0.032998
2277.4034,0.033327
2279.2671,0.033247
2281.1308,0.033276
2282.9944,0.033722
2284.8581,0.034612
2286.7218,0.034948
2288.5854,0.034819
2290.4491,0.034712
2292.3128,0.034507
2294.1764,0.034209
2296.0401,0.034429
2297.9038,0.034572
2299.7674,0.034640
2301.6311,0.034846
2303.4948,0.034887
2305.3585,0.035034
2307.2221,0.035284
2309.0858,0.035248
2310.9495,0.035031
2312.8131,0.035174
2314.6768,0.035754
2316.5405,0.035859
2318.4041,0.035577
2320.2678,0.035851
2322.1315,0.035888
2323.9951,0.035626
2325.8588,0.035118
2327.7225,0.034521
2329.5861,0.034306
2331.4498,0.034342
2333.3135,0.034614
2335.1772,0.034712
2337.0408,0.034394
2338.9045,0.034441
2340.7682,0.034941
2342.6318,0.035536
2344.4955,0.035958
2346.3592,0.035854
2348.2228,0.034699
2350.0865,0.033746
2351.9502,0.033886
2353.8138,0.034280
2355.6775,0.034264
2357.5412,0.034234
2359.4049,0.034382
2361.2685,0.034277
2363.1322,0.034154
2364.9959,0.034561
2366.8595,0.035203
2368.7232,0.035336
2370.5869,0.035965
2372.4505,0.036274
2374.3142,0.036122
2376.1779,0.036109
2378.0415,0.036244
2379.9052,0.036366
2381.7689,0.036212
2383.6325,0.035863
2385.4962,0.035795
2387.3599,0.035723
2389.2236,0.035560
2391.0872,0.035687
2392.9509,0.035943
2394.8146,0.036182
2396.6782,0.036325
2398.5419,0.036332
2400.4056,0.036401
2402.2692,0.036656
2404.1329,0.036699
2405.9966,0.036344
2407.8602,0.036340
2409.7239,0.036555
2411.5876,0.036918
2413.4512,0.037065
2415.3149,0.036839
2417.1786,0.036663
2419.0423,0.036896
2420.9059,0.037178
2422.7696,0.037379
2424.6333,0.037386
2426.4969,0.037491
2428.3606,0.037696
2430.2243,0.037588
2432.0879,0.037386
2433.9516,0.037504
2435.8153,0.037731
2437.6789,0.037818
2439.5426,0.037781
2441.4063,0.037928
2443.2700,0.037918
2445.1336,0.037634
2446.9973,0.037591
2448.8610,0.037594
2450.7246,0.037973
2452.5883,0.038163
2454.4520,0.038141
2456.3156,0.037989
2458.1793,0.038027
2460.0430,0.037913
2461.9066,0.037535
2463.7703,0.037519
2465.6340,0.037705
2467.4976,0.037691
2469.3613,0.037472
2471.2250,0.037522
2473.0887,0.037716
2474.9523,0.037775
2476.8160,0.037395
2478.6797,0.037571
2480.5433,0.038244
2482.4070,0.038589
2484.2707,0.038560
2486.1343,0.038443
2487.9980,0.038619
2489.8617,0.039218
2491.7253,0.039340
2493.5890,0.039254
2495.4527,0.038928
2497.3164,0.038759
2499.1800,0.039445
2501.0437,0.039798
2502.9074,0.039137
2504.7710,0.039088
2506.6347,0.039465
2508.4984,0.039494
2510.3620,0.039690
2512.2257,0.040261
2514.0894,0.040235
2515.9530,0.040000
2517.8167,0.040250
2519.6804,0.040415
2521.5440,0.040521
2523.4077,0.040563
2525.2714,0.040646
2527.1351,0.040703
