Wavenumber,Intensity
650.4205,0.228616
652.2841,0.230809
654.1478,0.233041
656.0115,0.234564
657.8751,0.242459
659.7388,0.249228
661.6025,0.256237
663.4661,0.265547
665.3298,0.274775
667.1935,0.280212
669.0571,0.277226
670.9208,0.262789
672.7845,0.249094
674.6481,0.235173
676.5118,0.226151
678.3755,0.221437
680.2392,0.217220
682.1028,0.211162
683.9665,0.207173
685.8302,0.203379
687.6938,0.200093
689.5575,0.195162
691.4212,0.190068
693.2848,0.185456
695.1485,0.182067
697.0122,0.179062
698.8758,0.177138
700.7395,0.176464
702.6032,0.174398
704.4669,0.170473
706.3305,0.166096
708.1942,0.159611
710.0579,0.152782
711.9215,0.146210
713.7852,0.140827
715.6489,0.134636
717.5125,0.128593
719.3762,0.124236
721.2399,0.120559
723.1035,0.116748
724.9672,0.113454
726.8309,0.111003
728.6945,0.108756
730.5582,0.105825
732.4219,0.103139
734.2856,0.100713
736.1492,0.099074
738.0129,0.098326
739.8766,0.098901
741.7402,0.100502
743.6039,0.102583
745.4676,0.103858
747.3312,0.103990
749.1949,0.103430
751.0586,0.102116
752.9222,0.100395
754.7859,0.099726
756.6496,0.099608
758.5132,0.099258
760.3769,0.098822
762.2406,0.098490
764.1043,0.097796
765.9679,0.097490
767.8316,0.097379
769.6953,0.097513
771.5589,0.098055
773.4226,0.098689
775.2863,0.099363
777.1499,0.100641
779.0136,0.101787
780.8773,0.102613
782.7409,0.103536
784.6046,0.104415
786.4683,0.105368
788.3320,0.106790
790.1956,0.108142
792.0593,0.109373
793.9230,0.110937
795.7866,0.112767
797.6503,0.114378
799.5140,0.115802
801.3776,0.116285
803.2413,0.116678
805.1050,0.117165
806.9686,0.116841
808.8323,0.115685
810.6960,0.114205
812.5596,0.112089
814.4233,0.109779
816.2870,0.107760
818.1507,0.105874
820.0143,0.104034
821.8780,0.103130
823.7417,0.103308
825.6053,0.104296
827.4690,0.106164
829.3327,0.107715
831.1963,0.104635
833.0600,0.096244
834.9237,0.088668
836.7873,0.085191
838.6510,0.084420
840.5147,0.084650
842.3784,0.085079
844.2420,0.085722
846.1057,0.086532
847.9694,0.087440
849.8330,0.087965
851.6967,0.088230
853.5604,0.088413
855.4240,0.088636
857.2877,0.089020
859.1514,0.089514
861.0150,0.089925
862.8787,0.090407
864.7424,0.091037
866.6060,0.091769
868.4697,0.092718
870.3334,0.093726
872.1971,0.094708
874.0607,0.095927
875.9244,0.096981
877.7881,0.097927
879.6517,0.099210
881.5154,0.100591
883.3791,0.101972
885.2427,0.103355
887.1064,0.104736
888.9701,0.106060
890.8337,0.107331
892.6974,0.108894
894.5611,0.110504
896.4247,0.112288
898.2884,0.114266
900.1521,0.116463
902.0158,0.119005
903.8794,0.122137
905.7431,0.125846
907.6068,0.130316
909.4704,0.135567
911.3341,0.141927
913.1978,0.149308
915.0614,0.153803
916.9251,0.149233
918.7888,0.138087
920.6524,0.129145
922.5161,0.125780
924.3798,0.126002
926.2435,0.127488
928.1071,0.129102
929.9708,0.130752
931.8345,0.132541
933.6981,0.134502
935.5618,0.136502
937.4255,0.138499
939.2891,0.140441
941.1528,0.142295
943.0165,0.144008
944.8801,0.145951
946.7438,0.147997
948.6075,0.150074
950.4711,0.152141
952.3348,0.154259
954.1985,0.156532
956.0622,0.159025
957.9258,0.161824
959.7895,0.164611
961.6532,0.167373
963.5168,0.170437
965.3805,0.173827
967.2442,0.177805
969.1078,0.182217
970.9715,0.186627
972.8352,0.191561
974.6988,0.198488
976.5625,0.208577
978.4262,0.223631
980.2899,0.242543
982.1535,0.249170
984.0172,0.228821
985.8809,0.204304
987.7445,0.195596
989.6082,0.197163
991.4719,0.200891
993.3355,0.204889
995.1992,0.208577
997.0629,0.211993
998.9265,0.215292
1000.7902,0.218382
1002.6539,0.221226
1004.5175,0.224131
1006.3812,0.227038
1008.2449,0.229554
1010.1086,0.231013
1011.9722,0.231297
1013.8359,0.230234
1015.6996,0.227916
1017.5632,0.224247
1019.4269,0.219183
1021.2906,0.213090
1023.1542,0.206410
1025.0179,0.199548
1026.8816,0.193292
1028.7452,0.187546
1030.6089,0.182283
1032.4726,0.177630
1034.3362,0.173496
1036.1999,0.169750
1038.0636,0.166498
1039.9273,0.163706
1041.7909,0.161326
1043.6546,0.159080
1045.5183,0.156838
1047.3819,0.153884
1049.2456,0.149040
1051.1093,0.141488
1052.9729,0.132464
1054.8366,0.124671
1056.7003,0.119742
1058.5639,0.117300
1060.4276,0.116097
1062.2913,0.115283
1064.1550,0.114808
1066.0186,0.114741
1067.8823,0.114987
1069.7460,0.115472
1071.6096,0.116154
1073.4733,0.116990
1075.3370,0.117969
1077.2006,0.118807
1079.0643,0.119340
1080.9280,0.119710
1082.7916,0.119979
1084.6553,0.120355
1086.5190,0.121076
1088.3826,0.122039
1090.2463,0.123399
1092.1100,0.125498
1093.9737,0.128249
1095.8373,0.131353
1097.7010,0.134815
1099.5647,0.138672
1101.4283,0.142475
1103.2920,0.145728
1105.1557,0.147769
1107.0193,0.147338
1108.8830,0.143472
1110.7467,0.136474
1112.6103,0.127485
1114.4740,0.117920
1116.3377,0.109124
1118.2014,0.101865
1120.0650,0.096479
1121.9287,0.092619
1123.7924,0.089773
1125.6560,0.087568
1127.5197,0.085527
1129.3834,0.083441
1131.2470,0.081442
1133.1107,0.079554
1134.9744,0.077831
1136.8380,0.076404
1138.7017,0.075421
1140.5654,0.074865
1142.4290,0.074514
1144.2927,0.074324
1146.1564,0.074243
1148.0201,0.074215
1149.8837,0.074151
1151.7474,0.074039
1153.6111,0.074051
1155.4747,0.074117
1157.3384,0.074114
1159.2021,0.074186
1161.0657,0.074561
1162.9294,0.075343
1164.7931,0.076331
1166.6567,0.077720
1168.5204,0.079686
1170.3841,0.081780
1172.2477,0.083083
1174.1114,0.082502
1175.9751,0.079504
1177.8388,0.075490
1179.7024,0.072347
1181.5661,0.070528
1183.4298,0.069850
1185.2934,0.069842
1187.1571,0.069955
1189.0208,0.070006
1190.8844,0.069982
1192.7481,0.070037
1194.6118,0.070122
1196.4754,0.070253
1198.3391,0.070666
1200.2028,0.071337
1202.0665,0.071907
1203.9301,0.072294
1205.7938,0.072608
1207.6575,0.072983
1209.5211,0.073484
1211.3848,0.074067
1213.2485,0.074776
1215.1121,0.075560
1216.9758,0.076295
1218.8395,0.076989
1220.7031,0.077628
1222.5668,0.078142
1224.4305,0.078633
1226.2941,0.079143
1228.1578,0.079625
1230.0215,0.080119
1231.8852,0.080534
1233.7488,0.080883
1235.6125,0.081229
1237.4762,0.081465
1239.3398,0.081721
1241.2035,0.082032
1243.0672,0.082247
1244.9308,0.082542
1246.7945,0.082964
1248.6582,0.083341
1250.5218,0.083675
1252.3855,0.084010
1254.2492,0.084397
1256.1129,0.084862
1257.9765,0.085401
1259.8402,0.085993
1261.7039,0.086608
1263.5675,0.087271
1265.4312,0.087839
1267.2949,0.088083
1269.1585,0.087974
1271.0222,0.087866
1272.8859,0.087982
1274.7495,0.088243
1276.6132,0.088840
1278.4769,0.089888
1280.3405,0.091161
1282.2042,0.092475
1284.0679,0.093699
1285.9316,0.095032
1287.7952,0.096786
1289.6589,0.098864
1291.5226,0.101135
1293.3862,0.103868
1295.2499,0.107274
1297.1136,0.111280
1298.9772,0.115798
1300.8409,0.121306
1302.7046,0.127378
1304.5682,0.131911
1306.4319,0.132012
1308.2956,0.124332
1310.1592,0.109419
1312.0229,0.093833
1313.8866,0.083604
1315.7503,0.079704
1317.6139,0.079478
1319.4776,0.080963
1321.3413,0.082783
1323.2049,0.084491
1325.0686,0.086497
1326.9323,0.088697
1328.7959,0.090755
1330.6596,0.092451
1332.5233,0.093629
1334.3869,0.094123
1336.2506,0.094234
1338.1143,0.095114
1339.9780,0.097038
1341.8416,0.097616
1343.7053,0.097075
1345.5690,0.097400
1347.4326,0.098445
1349.2963,0.099672
1351.1600,0.101110
1353.0236,0.102812
1354.8873,0.105025
1356.7510,0.107014
1358.6146,0.108056
1360.4783,0.109538
1362.3420,0.113399
1364.2056,0.117197
1366.0693,0.118633
1367.9330,0.121065
1369.7967,0.124377
1371.6603,0.126649
1373.5240,0.130622
1375.3877,0.135853
1377.2513,0.138735
1379.1150,0.142311
1380.9787,0.147249
1382.8423,0.151661
1384.7060,0.156140
1386.5697,0.162456
1388.4333,0.170560
1390.2970,0.173780
1392.1607,0.174189
1394.0244,0.174223
1395.8880,0.171415
1397.7517,0.164945
1399.6154,0.157571
1401.4790,0.150320
1403.3427,0.143527
1405.2064,0.134818
1407.0700,0.122196
1408.9337,0.108466
1410.7974,0.095865
1412.6610,0.086987
1414.5247,0.082131
1416.3884,0.080876
1418.2520,0.084483
1420.1157,0.092336
1421.9794,0.094672
1423.8431,0.092492
1425.7067,0.086321
1427.5704,0.079017
1429.4341,0.075151
1431.2977,0.074518
1433.1614,0.074301
1435.0251,0.075193
1436.8887,0.079870
1438.7524,0.083140
1440.6161,0.082682
1442.4797,0.083543
1444.3434,0.084550
1446.2071,0.085218
1448.0707,0.086063
1449.9344,0.085328
1451.7981,0.082219
1453.6618,0.078652
1455.5254,0.076658
1457.3891,0.081720
1459.2528,0.085201
1461.1164,0.082488
1462.9801,0.081295
1464.8438,0.082522
1466.7074,0.082561
1468.5711,0.079456
1470.4348,0.077052
1472.2984,0.077897
1474.1621,0.080833
1476.0258,0.080906
1477.8895,0.081047
1479.7531,0.081176
1481.6168,0.082279
1483.4805,0.083473
1485.3441,0.083720
1487.2078,0.085279
1489.0715,0.089653
1490.9351,0.094813
1492.7988,0.094692
1494.6625,0.093649
1496.5261,0.097359
1498.3898,0.102479
1500.2535,0.103304
1502.1171,0.102054
1503.9808,0.100415
1505.8445,0.103291
1507.7082,0.117515
1509.5718,0.118061
1511.4355,0.115734
1513.2992,0.115643
1515.1628,0.115615
1517.0265,0.116917
1518.8902,0.117381
1520.7538,0.117981
1522.6175,0.122394
1524.4812,0.122077
1526.3448,0.122378
1528.2085,0.123682
1530.0722,0.122542
1531.9359,0.122292
1533.7995,0.125104
1535.6632,0.125098
1537.5269,0.121760
1539.3905,0.123488
1541.2542,0.132415
1543.1179,0.133132
1544.9815,0.132762
1546.8452,0.132239
1548.7089,0.131371
1550.5725,0.132401
1552.4362,0.132603
1554.2999,0.131576
1556.1635,0.131323
1558.0272,0.134150
1559.8909,0.148257
1561.7546,0.144169
1563.6182,0.139889
1565.4819,0.140191
1567.3456,0.141286
1569.2092,0.143378
1571.0729,0.146793
1572.9366,0.145860
1574.8002,0.146368
1576.6639,0.152462
1578.5276,0.154956
1580.3912,0.153675
1582.2549,0.154657
1584.1186,0.155990
1585.9822,0.156807
1587.8459,0.157423
1589.7096,0.157823
1591.5733,0.157768
1593.4369,0.157200
1595.3006,0.156532
1597.1643,0.155804
1599.0279,0.154661
1600.8916,0.153452
1602.7553,0.152440
1604.6189,0.151508
1606.4826,0.150613
1608.3463,0.150374
1610.2099,0.150322
1612.0736,0.148940
1613.9373,0.146772
1615.8010,0.145302
1617.6646,0.144032
1619.5283,0.139443
1621.3920,0.135011
1623.2556,0.132072
1625.1193,0.128754
1626.9830,0.123809
1628.8466,0.117893
1630.7103,0.111349
1632.5740,0.104942
1634.4376,0.099309
1636.3013,0.095165
1638.1650,0.092301
1640.0286,0.089702
1641.8923,0.087933
1643.7560,0.086643
1645.6197,0.086816
1647.4833,0.089533
1649.3470,0.090179
1651.2107,0.089047
1653.0743,0.092917
1654.9380,0.099172
1656.8017,0.095854
1658.6653,0.093614
1660.5290,0.092125
1662.3927,0.090483
1664.2563,0.088649
1666.1200,0.085539
1667.9837,0.082299
1669.8474,0.080293
1671.7110,0.079264
1673.5747,0.078181
1675.4384,0.078885
1677.3020,0.080699
1679.1657,0.080139
1681.0294,0.080304
1682.8930,0.080892
1684.7567,0.084260
1686.6204,0.085663
1688.4840,0.082290
1690.3477,0.079393
1692.2114,0.075499
1694.0750,0.071044
1695.9387,0.065997
1697.8024,0.061994
1699.6661,0.057892
1701.5297,0.054108
1703.3934,0.049095
1705.2571,0.043154
1707.1207,0.037359
1708.9844,0.033048
1710.8481,0.029350
1712.7117,0.025973
1714.5754,0.022847
1716.4391,0.020952
1718.3027,0.020753
1720.1664,0.021491
1722.0301,0.020435
1723.8937,0.019232
1725.7574,0.017898
1727.6211,0.016268
1729.4848,0.014478
1731.3484,0.013251
1733.2121,0.011728
1735.0758,0.012187
1736.9394,0.012765
1738.8031,0.011482
1740.6668,0.011572
1742.5304,0.011499
1744.3941,0.011073
1746.2578,0.010665
1748.1214,0.010026
1749.9851,0.009774
1751.8488,0.010235
1753.7125,0.010817
1755.5761,0.010099
1757.4398,0.009948
1759.3035,0.010221
1761.1671,0.009794
1763.0308,0.010245
1764.8945,0.010354
1766.7581,0.009637
1768.6218,0.009397
1770.4855,0.009104
1772.3491,0.008688
1774.2128,0.009853
1776.0765,0.009747
1777.9401,0.009737
1779.8038,0.009428
1781.6675,0.009743
1783.5312,0.010095
1785.3948,0.010153
1787.2585,0.010196
1789.1222,0.009713
1790.9858,0.008962
1792.8495,0.009358
1794.7132,0.010245
1796.5768,0.010131
1798.4405,0.009897
1800.3042,0.009718
1802.1678,0.010091
1804.0315,0.010373
1805.8952,0.010399
1807.7589,0.010288
1809.6225,0.010261
1811.4862,0.010325
1813.3499,0.010281
1815.2135,0.010092
1817.0772,0.010180
1818.9409,0.010466
1820.8045,0.010501
1822.6682,0.010408
1824.5319,0.010146
1826.3955,0.010146
1828.2592,0.009683
1830.1229,0.009447
1831.9865,0.010342
1833.8502,0.010147
1835.7139,0.010000
1837.5776,0.009811
1839.4412,0.009613
1841.3049,0.009374
1843.1686,0.008831
1845.0322,0.008980
1846.8959,0.009741
1848.7596,0.009717
1850.6232,0.010039
1852.4869,0.010084
1854.3506,0.010209
1856.2142,0.010118
1858.0779,0.010070
1859.9416,0.009916
1861.8052,0.009956
1863.6689,0.009762
1865.5326,0.009584
1867.3963,0.009103
1869.2599,0.008840
1871.1236,0.009127
1872.9873,0.009272
1874.8509,0.009487
1876.7146,0.009862
1878.5783,0.009819
1880.4419,0.009692
1882.3056,0.009566
1884.1693,0.009452
1886.0329,0.009308
1887.8966,0.009079
1889.7603,0.008831
1891.6240,0.009532
1893.4876,0.009619
1895.3513,0.009509
1897.2150,0.009642
1899.0786,0.009656
1900.9423,0.009433
1902.8060,0.009427
1904.6696,0.009388
1906.5333,0.009324
1908.3970,0.009182
1910.2606,0.009205
1912.1243,0.009409
1913.9880,0.009504
1915.8516,0.009170
1917.7153,0.008794
1919.5790,0.008872
1921.4427,0.008560
1923.3063,0.008290
1925.1700,0.008668
1927.0337,0.008744
1928.8973,0.008596
1930.7610,0.008099
1932.6247,0.008230
1934.4883,0.008181
1936.3520,0.008040
1938.2157,0.007701
1940.0793,0.007068
1941.9430,0.006580
1943.8067,0.006984
1945.6704,0.006969
1947.5340,0.006872
1949.3977,0.006321
1951.2614,0.005922
1953.1250,0.005754
1954.9887,0.005678
1956.8524,0.005271
1958.7160,0.004545
1960.5797,0.003447
1962.4434,0.002716
1964.3070,0.002423
1966.1707,0.002762
1968.0344,0.002081
1969.8980,0.000895
1971.7617,0.000398
1973.6254,0.000044
1975.4891,-0.000130
1977.3527,0.000817
1979.2164,0.002122
1981.0801,0.003129
1982.9437,0.003578
1984.8074,0.003930
1986.6711,0.003214
1988.5347,0.002754
1990.3984,0.002847
1992.2621,0.003536
1994.1257,0.004449
1995.9894,0.004615
1997.8531,0.004306
1999.7167,0.003946
2001.5804,0.003269
2003.4441,0.002752
2005.3078,0.002235
2007.1714,0.001344
2009.0351,0.001438
2010.8988,0.002835
2012.7624,0.002397
2014.6261,0.000887
2016.4898,0.000371
2018.3534,0.000410
2020.2171,-0.000502
2022.0808,-0.000710
2023.9444,0.000742
2025.8081,0.001415
2027.6718,0.000781
2029.5355,0.000946
2031.3991,0.001617
2033.2628,0.001642
2035.1265,0.001724
2036.9901,0.002480
2038.8538,0.002952
2040.7175,0.003978
2042.5811,0.004777
2044.4448,0.004704
2046.3085,0.004277
2048.1721,0.004601
2050.0358,0.006028
2051.8995,0.007311
2053.7631,0.007281
2055.6268,0.007507
2057.4905,0.008188
2059.3542,0.008469
2061.2178,0.008304
2063.0815,0.008354
2064.9452,0.008389
2066.8088,0.008988
2068.6725,0.009213
2070.5362,0.009317
2072.3998,0.010034
2074.2635,0.010799
2076.1272,0.010953
2077.9908,0.010969
2079.8545,0.010846
2081.7182,0.011327
2083.5819,0.011645
2085.4455,0.011466
2087.3092,0.011362
2089.1729,0.011421
2091.0365,0.011324
2092.9002,0.011114
2094.7639,0.011499
2096.6275,0.012566
2098.4912,0.012252
2100.3549,0.011374
2102.2185,0.011222
2104.0822,0.011287
2105.9459,0.011467
2107.8095,0.012618
2109.6732,0.012864
2111.5369,0.012358
2113.4006,0.012292
2115.2642,0.012612
2117.1279,0.013035
2118.9916,0.012878
2120.8552,0.011876
2122.7189,0.011078
2124.5826,0.010972
2126.4462,0.011112
2128.3099,0.010874
2130.1736,0.010542
2132.0372,0.009827
2133.9009,0.009281
2135.7646,0.008808
2137.6282,0.008142
2139.4919,0.008023
2141.3556,0.007924
2143.2193,0.008211
2145.0829,0.008159
2146.9466,0.007058
2148.8103,0.007055
2150.6739,0.006235
2152.5376,0.005180
2154.4013,0.004070
2156.2649,0.000961
2158.1286,-0.001629
2159.9923,0.000828
2161.8559,0.004439
2163.7196,0.005037
2165.5833,0.005323
2167.4470,0.006749
2169.3106,0.007085
2171.1743,0.006014
2173.0380,0.005417
2174.9016,0.005849
2176.7653,0.006120
2178.6290,0.006096
2180.4926,0.005824
2182.3563,0.005473
2184.2200,0.006840
2186.0836,0.008370
2187.9473,0.008423
2189.8110,0.008466
2191.6746,0.008207
2193.5383,0.008160
2195.4020,0.009114
2197.2657,0.009858
2199.1293,0.009835
2200.9930,0.009833
2202.8567,0.009957
2204.7203,0.010247
2206.5840,0.010592
2208.4477,0.011292
2210.3113,0.010592
2212.1750,0.009905
2214.0387,0.010749
2215.9023,0.011588
2217.7660,0.011389
2219.6297,0.011668
2221.4934,0.011955
2223.3570,0.012343
2225.2207,0.012770
2227.0844,0.013196
2228.9480,0.013124
2230.8117,0.013323
2232.6754,0.013773
2234.5390,0.013859
2236.4027,0.013518
2238.2664,0.012722
2240.1300,0.013028
2241.9937,0.013769
2243.8574,0.013606
2245.7210,0.013887
2247.5847,0.014274
2249.4484,0.014548
2251.3121,0.014617
2253.1757,0.014464
2255.0394,0.014310
2256.9031,0.014300
2258.7667,0.014639
2260.6304,0.015366
2262.4941,0.015827
2264.3577,0.016395
2266.2214,0.016782
2268.0851,0.016882
2269.9487,0.016531
2271.8124,0.016479
2273.6761,0.017077
2275.5397,0.017824
2277.4034,0.018578
2279.2671,0.018994
2281.1308,0.018658
2282.9944,0.018346
2284.8581,0.018546
2286.7218,0.018992
2288.5854,0.019289
2290.4491,0.019412
2292.3128,0.019606
2294.1764,0.019847
2296.0401,0.019573
2297.9038,0.019395
2299.7674,0.019250
2301.6311,0.019304
2303.4948,0.019586
2305.3585,0.019667
2307.2221,0.019726
2309.0858,0.019917
2310.9495,0.020193
2312.8131,0.020443
2314.6768,0.020215
2316.5405,0.019875
2318.4041,0.020236
2320.2678,0.020992
2322.1315,0.020888
2323.9951,0.021102
2325.8588,0.020931
2327.7225,0.019845
2329.5861,0.019531
2331.4498,0.019589
2333.3135,0.019363
2335.1772,0.019723
2337.0408,0.020044
2338.9045,0.019822
2340.7682,0.019768
2342.6318,0.020165
2344.4955,0.020251
2346.3592,0.020203
2348.2228,0.020000
2350.0865,0.019358
2351.9502,0.018900
2353.8138,0.018992
2355.6775,0.019054
2357.5412,0.019450
2359.4049,0.019678
2361.2685,0.019746
2363.1322,0.019471
2364.9959,0.019559
2366.8595,0.019671
2368.7232,0.020010
2370.5869,0.020545
2372.4505,0.020458
2374.3142,0.020005
2376.1779,0.020099
2378.0415,0.020415
2379.9052,0.020264
2381.7689,0.019869
2383.6325,0.019976
2385.4962,0.020218
2387.3599,0.020131
2389.2236,0.019891
2391.0872,0.019926
2392.9509,0.020014
2394.8146,0.020027
2396.6782,0.020092
2398.5419,0.019781
2400.4056,0.019473
2402.2692,0.019903
2404.1329,0.020298
2405.9966,0.020241
2407.8602,0.020000
2409.7239,0.020009
2411.5876,0.020283
2413.4512,0.020838
2415.3149,0.020970
2417.1786,0.020870
2419.0423,0.020820
2420.9059,0.021057
2422.7696,0.021050
2424.6333,0.020953
2426.4969,0.021150
2428.3606,0.021103
2430.2243,0.020763
2432.0879,0.020809
2433.9516,0.020907
2435.8153,0.021141
2437.6789,0.021096
2439.5426,0.021105
2441.4063,0.021482
2443.2700,0.021820
2445.1336,0.021525
2446.9973,0.021223
2448.8610,0.021414
2450.7246,0.021606
2452.5883,0.021410
2454.4520,0.021447
2456.3156,0.021420
2458.1793,0.021346
2460.0430,0.021333
2461.9066,0.021428
2463.7703,0.021499
2465.6340,0.021516
2467.4976,0.021395
2469.3613,0.021330
2471.2250,0.021222
2473.0887,0.021279
2474.9523,0.021355
2476.8160,0.021559
2478.6797,0.021757
2480.5433,0.022204
2482.4070,0.022220
2484.2707,0.021748
2486.1343,0.021730
2487.9980,0.022223
2489.8617,0.022256
2491.7253,0.022121
2493.5890,0.022305
2495.4527,0.022566
2497.3164,0.022891
2499.1800,0.023157
2501.0437,0.022759
2502.9074,0.022463
2504.7710,0.022687
2506.6347,0.023013
2508.4984,0.023336
2510.3620,0.023652
2512.2257,0.023711
2514.0894,0.023574
2515.9530,0.023124
2517.8167,0.022946
2519.6804,0.023441
2521.5440,0.023875
2523.4077,0.024107
2525.2714,0.023990
2527.1351,0.023711
