Wavenumber,Intensity
650.4205,0.186143
652.2841,0.181280
654.1478,0.178090
656.0115,0.178288
657.8751,0.178605
659.7388,0.177647
661.6025,0.177397
663.4661,0.177100
665.3298,0.179274
667.1935,0.183190
669.0571,0.179873
670.9208,0.170740
672.7845,0.168316
674.6481,0.166258
676.5118,0.164981
678.3755,0.164028
680.2392,0.163150
682.1028,0.161337
683.9665,0.161282
685.8302,0.160732
687.6938,0.159746
689.5575,0.157208
691.4212,0.156316
693.2848,0.155573
695.1485,0.155109
697.0122,0.154689
698.8758,0.155571
700.7395,0.156175
702.6032,0.154563
704.4669,0.151612
706.3305,0.147812
708.1942,0.140979
710.0579,0.134769
711.9215,0.129060
713.7852,0.122923
715.6489,0.116417
717.5125,0.110665
719.3762,0.106266
721.2399,0.102637
723.1035,0.098657
724.9672,0.094176
726.8309,0.090195
728.6945,0.086694
730.5582,0.084032
732.4219,0.081702
734.2856,0.078768
736.1492,0.076885
738.0129,0.076244
739.8766,0.077139
741.7402,0.079738
743.6039,0.082613
745.4676,0.084776
747.3312,0.085619
749.1949,0.084493
751.0586,0.082497
752.9222,0.081081
754.7859,0.080337
756.6496,0.079026
758.5132,0.077884
760.3769,0.077299
762.2406,0.076675
764.1043,0.076067
765.9679,0.075936
767.8316,0.076121
769.6953,0.076662
771.5589,0.077029
773.4226,0.077330
775.2863,0.077779
777.1499,0.078472
779.0136,0.079314
780.8773,0.080285
782.7409,0.081681
784.6046,0.083582
786.4683,0.085306
788.3320,0.087391
790.1956,0.089570
792.0593,0.090847
793.9230,0.091737
795.7866,0.092578
797.6503,0.093160
799.5140,0.093967
801.3776,0.094488
803.2413,0.094910
805.1050,0.094546
806.9686,0.093443
808.8323,0.091498
810.6960,0.089230
812.5596,0.086798
814.4233,0.084284
816.2870,0.081884
818.1507,0.079662
820.0143,0.077614
821.8780,0.076235
823.7417,0.075607
825.6053,0.075908
827.4690,0.077204
829.3327,0.077777
831.1963,0.073421
833.0600,0.064805
834.9237,0.057646
836.7873,0.054300
838.6510,0.053166
840.5147,0.052652
842.3784,0.052755
844.2420,0.053359
846.1057,0.053828
847.9694,0.053788
849.8330,0.053396
851.6967,0.052816
853.5604,0.052579
855.4240,0.052481
857.2877,0.052133
859.1514,0.051375
861.0150,0.050495
862.8787,0.049939
864.7424,0.049697
866.6060,0.049843
868.4697,0.050013
870.3334,0.050045
872.1971,0.050281
874.0607,0.050713
875.9244,0.051026
877.7881,0.051390
879.6517,0.051713
881.5154,0.052093
883.3791,0.052631
885.2427,0.053248
887.1064,0.053642
888.9701,0.054117
890.8337,0.054750
892.6974,0.055422
894.5611,0.056133
896.4247,0.057259
898.2884,0.058769
900.1521,0.060190
902.0158,0.061746
903.8794,0.063832
905.7431,0.066744
907.6068,0.070452
909.4704,0.074574
911.3341,0.079331
913.1978,0.084905
915.0614,0.087754
916.9251,0.081958
918.7888,0.070209
920.6524,0.061118
922.5161,0.057233
924.3798,0.056344
926.2435,0.056499
928.1071,0.057010
929.9708,0.057714
931.8345,0.058469
933.6981,0.059334
935.5618,0.060199
937.4255,0.060935
939.2891,0.061599
941.1528,0.062457
943.0165,0.063312
944.8801,0.064135
946.7438,0.065130
948.6075,0.066283
950.4711,0.067429
952.3348,0.068479
954.1985,0.069719
956.0622,0.071134
957.9258,0.072513
959.7895,0.073912
961.6532,0.075492
963.5168,0.077368
965.3805,0.079401
967.2442,0.081688
969.1078,0.084229
970.9715,0.086819
972.8352,0.089696
974.6988,0.094395
976.5625,0.102211
978.4262,0.114820
980.2899,0.131636
982.1535,0.138021
984.0172,0.118833
985.8809,0.094032
987.7445,0.083029
989.6082,0.081920
991.4719,0.083381
993.3355,0.085231
995.1992,0.086977
997.0629,0.088253
998.9265,0.089263
1000.7902,0.090625
1002.6539,0.092388
1004.5175,0.094162
1006.3812,0.095663
1008.2449,0.096812
1010.1086,0.097540
1011.9722,0.097940
1013.8359,0.098088
1015.6996,0.098133
1017.5632,0.098062
1019.4269,0.097642
1021.2906,0.097188
1023.1542,0.096639
1025.0179,0.095842
1026.8816,0.095129
1028.7452,0.094792
1030.6089,0.094825
1032.4726,0.095048
1034.3362,0.095532
1036.1999,0.096291
1038.0636,0.097270
1039.9273,0.098455
1041.7909,0.099977
1043.6546,0.101662
1045.5183,0.102930
1047.3819,0.102867
1049.2456,0.100280
1051.1093,0.094497
1052.9729,0.086841
1054.8366,0.079908
1056.7003,0.075504
1058.5639,0.073590
1060.4276,0.073104
1062.2913,0.073214
1064.1550,0.073559
1066.0186,0.074184
1067.8823,0.075355
1069.7460,0.076744
1071.6096,0.078108
1073.4733,0.079643
1075.3370,0.081382
1077.2006,0.083010
1079.0643,0.084625
1080.9280,0.086462
1082.7916,0.088456
1084.6553,0.090595
1086.5190,0.092945
1088.3826,0.095573
1090.2463,0.098649
1092.1100,0.102174
1093.9737,0.105997
1095.8373,0.110089
1097.7010,0.114390
1099.5647,0.118958
1101.4283,0.123665
1103.2920,0.127681
1105.1557,0.130293
1107.0193,0.130464
1108.8830,0.127032
1110.7467,0.119990
1112.6103,0.110794
1114.4740,0.101240
1116.3377,0.092647
1118.2014,0.085623
1120.0650,0.080365
1121.9287,0.076578
1123.7924,0.074102
1125.6560,0.072366
1127.5197,0.070696
1129.3834,0.068994
1131.2470,0.067195
1133.1107,0.065354
1134.9744,0.063626
1136.8380,0.062033
1138.7017,0.060827
1140.5654,0.060195
1142.4290,0.059745
1144.2927,0.059301
1146.1564,0.058967
1148.0201,0.058610
1149.8837,0.058412
1151.7474,0.058647
1153.6111,0.059254
1155.4747,0.060007
1157.3384,0.060779
1159.2021,0.061811
1161.0657,0.063109
1162.9294,0.064628
1164.7931,0.066347
1166.6567,0.068263
1168.5204,0.070614
1170.3841,0.073356
1172.2477,0.075628
1174.1114,0.075804
1175.9751,0.073219
1177.8388,0.069218
1179.7024,0.065675
1181.5661,0.063548
1183.4298,0.062735
1185.2934,0.062382
1187.1571,0.062046
1189.0208,0.061674
1190.8844,0.061246
1192.7481,0.060841
1194.6118,0.060518
1196.4754,0.060435
1198.3391,0.060547
1200.2028,0.060766
1202.0665,0.060968
1203.9301,0.060987
1205.7938,0.060803
1207.6575,0.060572
1209.5211,0.060690
1211.3848,0.061138
1213.2485,0.061539
1215.1121,0.061959
1216.9758,0.062475
1218.8395,0.062763
1220.7031,0.062565
1222.5668,0.062179
1224.4305,0.062160
1226.2941,0.062531
1228.1578,0.062921
1230.0215,0.063313
1231.8852,0.063642
1233.7488,0.063781
1235.6125,0.063857
1237.4762,0.064060
1239.3398,0.064337
1241.2035,0.064696
1243.0672,0.065210
1244.9308,0.065749
1246.7945,0.066329
1248.6582,0.066953
1250.5218,0.067574
1252.3855,0.068163
1254.2492,0.068836
1256.1129,0.069597
1257.9765,0.070419
1259.8402,0.071444
1261.7039,0.072579
1263.5675,0.073610
1265.4312,0.074390
1267.2949,0.074536
1269.1585,0.074068
1271.0222,0.073712
1272.8859,0.073799
1274.7495,0.074215
1276.6132,0.075066
1278.4769,0.076261
1280.3405,0.077784
1282.2042,0.079395
1284.0679,0.080898
1285.9316,0.082446
1287.7952,0.084093
1289.6589,0.085988
1291.5226,0.088447
1293.3862,0.091628
1295.2499,0.095478
1297.1136,0.100105
1298.9772,0.105600
1300.8409,0.111942
1302.7046,0.118615
1304.5682,0.123360
1306.4319,0.122617
1308.2956,0.113450
1310.1592,0.097401
1312.0229,0.081332
1313.8866,0.070800
1315.7503,0.066977
1317.6139,0.067510
1319.4776,0.069871
1321.3413,0.072663
1323.2049,0.075717
1325.0686,0.079139
1326.9323,0.082284
1328.7959,0.084206
1330.6596,0.084671
1332.5233,0.084449
1334.3869,0.083743
1336.2506,0.083021
1338.1143,0.083238
1339.9780,0.084070
1341.8416,0.083646
1343.7053,0.082991
1345.5690,0.083289
1347.4326,0.084459
1349.2963,0.086352
1351.1600,0.088555
1353.0236,0.090882
1354.8873,0.093647
1356.7510,0.095920
1358.6146,0.097068
1360.4783,0.098131
1362.3420,0.100524
1364.2056,0.102303
1366.0693,0.103104
1367.9330,0.105550
1369.7967,0.108950
1371.6603,0.112011
1373.5240,0.116815
1375.3877,0.121875
1377.2513,0.124767
1379.1150,0.128295
1380.9787,0.132650
1382.8423,0.136845
1384.7060,0.141496
1386.5697,0.148064
1388.4333,0.154866
1390.2970,0.157376
1392.1607,0.158432
1394.0244,0.158822
1395.8880,0.154787
1397.7517,0.148190
1399.6154,0.141434
1401.4790,0.134592
1403.3427,0.129145
1405.2064,0.120817
1407.0700,0.108043
1408.9337,0.094978
1410.7974,0.082961
1412.6610,0.074201
1414.5247,0.069760
1416.3884,0.069291
1418.2520,0.073187
1420.1157,0.079700
1421.9794,0.081795
1423.8431,0.079580
1425.7067,0.072039
1427.5704,0.064365
1429.4341,0.059705
1431.2977,0.057698
1433.1614,0.057238
1435.0251,0.058552
1436.8887,0.062453
1438.7524,0.064686
1440.6161,0.065334
1442.4797,0.066747
1444.3434,0.068033
1446.2071,0.069164
1448.0707,0.069812
1449.9344,0.068556
1451.7981,0.066232
1453.6618,0.063968
1455.5254,0.064030
1457.3891,0.068717
1459.2528,0.069828
1461.1164,0.068276
1462.9801,0.068221
1464.8438,0.068910
1466.7074,0.067453
1468.5711,0.065039
1470.4348,0.064071
1472.2984,0.065544
1474.1621,0.066724
1476.0258,0.066179
1477.8895,0.065673
1479.7531,0.065666
1481.6168,0.066344
1483.4805,0.066872
1485.3441,0.067286
1487.2078,0.068561
1489.0715,0.071104
1490.9351,0.073103
1492.7988,0.072143
1494.6625,0.071765
1496.5261,0.073591
1498.3898,0.075675
1500.2535,0.075730
1502.1171,0.074825
1503.9808,0.074409
1505.8445,0.077843
1507.7082,0.086794
1509.5718,0.085987
1511.4355,0.084914
1513.2992,0.085273
1515.1628,0.085973
1517.0265,0.087368
1518.8902,0.087622
1520.7538,0.088811
1522.6175,0.090354
1524.4812,0.089919
1526.3448,0.090834
1528.2085,0.091402
1530.0722,0.090767
1531.9359,0.091745
1533.7995,0.094609
1535.6632,0.094339
1537.5269,0.093950
1539.3905,0.098878
1541.2542,0.106910
1543.1179,0.107687
1544.9815,0.109142
1546.8452,0.110023
1548.7089,0.111624
1550.5725,0.114935
1552.4362,0.116846
1554.2999,0.118256
1556.1635,0.120281
1558.0272,0.126287
1559.8909,0.137664
1561.7546,0.132412
1563.6182,0.130576
1565.4819,0.131969
1567.3456,0.133720
1569.2092,0.137114
1571.0729,0.139366
1572.9366,0.138703
1574.8002,0.140798
1576.6639,0.145681
1578.5276,0.146008
1580.3912,0.145357
1582.2549,0.146245
1584.1186,0.146967
1585.9822,0.147327
1587.8459,0.147573
1589.7096,0.147467
1591.5733,0.146767
1593.4369,0.145950
1595.3006,0.144888
1597.1643,0.143227
1599.0279,0.141258
1600.8916,0.139661
1602.7553,0.137983
1604.6189,0.135994
1606.4826,0.134249
1608.3463,0.132800
1610.2099,0.130700
1612.0736,0.128135
1613.9373,0.125549
1615.8010,0.123396
1617.6646,0.118066
1619.5283,0.111787
1621.3920,0.108161
1623.2556,0.104205
1625.1193,0.098195
1626.9830,0.093150
1628.8466,0.087076
1630.7103,0.080493
1632.5740,0.075065
1634.4376,0.070394
1636.3013,0.064396
1638.1650,0.060130
1640.0286,0.058706
1641.8923,0.057847
1643.7560,0.057675
1645.6197,0.058731
1647.4833,0.060331
1649.3470,0.060896
1651.2107,0.062267
1653.0743,0.066404
1654.9380,0.068705
1656.8017,0.068219
1658.6653,0.068877
1660.5290,0.069630
1662.3927,0.069883
1664.2563,0.068654
1666.1200,0.067148
1667.9837,0.066660
1669.8474,0.066296
1671.7110,0.065531
1673.5747,0.066056
1675.4384,0.067796
1677.3020,0.068931
1679.1657,0.070009
1681.0294,0.071902
1682.8930,0.074181
1684.7567,0.076625
1686.6204,0.076052
1688.4840,0.074734
1690.3477,0.072457
1692.2114,0.069156
1694.0750,0.066722
1695.9387,0.063391
1697.8024,0.058673
1699.6661,0.056405
1701.5297,0.050580
1703.3934,0.045815
1705.2571,0.041664
1707.1207,0.035072
1708.9844,0.030428
1710.8481,0.027101
1712.7117,0.024272
1714.5754,0.022164
1716.4391,0.020495
1718.3027,0.019064
1720.1664,0.018053
1722.0301,0.017611
1723.8937,0.016636
1725.7574,0.015030
1727.6211,0.013635
1729.4848,0.012345
1731.3484,0.011163
1733.2121,0.010427
1735.0758,0.009177
1736.9394,0.008782
1738.8031,0.008953
1740.6668,0.008532
1742.5304,0.008239
1744.3941,0.008027
1746.2578,0.007567
1748.1214,0.007292
1749.9851,0.007237
1751.8488,0.007074
1753.7125,0.006963
1755.5761,0.007072
1757.4398,0.006993
1759.3035,0.006940
1761.1671,0.007041
1763.0308,0.006723
1764.8945,0.006566
1766.7581,0.006631
1768.6218,0.006397
1770.4855,0.006269
1772.3491,0.006309
1774.2128,0.006118
1776.0765,0.006067
1777.9401,0.006255
1779.8038,0.006410
1781.6675,0.006411
1783.5312,0.006560
1785.3948,0.006535
1787.2585,0.006311
1789.1222,0.006382
1790.9858,0.006531
1792.8495,0.006242
1794.7132,0.006019
1796.5768,0.006245
1798.4405,0.006368
1800.3042,0.006365
1802.1678,0.006554
1804.0315,0.006656
1805.8952,0.006702
1807.7589,0.006758
1809.6225,0.006750
1811.4862,0.006806
1813.3499,0.006800
1815.2135,0.006686
1817.0772,0.006588
1818.9409,0.006556
1820.8045,0.006756
1822.6682,0.006877
1824.5319,0.006641
1826.3955,0.006396
1828.2592,0.006464
1830.1229,0.006439
1831.9865,0.006249
1833.8502,0.006205
1835.7139,0.006161
1837.5776,0.006198
1839.4412,0.006375
1841.3049,0.006475
1843.1686,0.006457
1845.0322,0.006162
1846.8959,0.006065
1848.7596,0.006450
1850.6232,0.006597
1852.4869,0.006507
1854.3506,0.006643
1856.2142,0.006746
1858.0779,0.006608
1859.9416,0.006550
1861.8052,0.006467
1863.6689,0.006292
1865.5326,0.006484
1867.3963,0.006855
1869.2599,0.006467
1871.1236,0.005931
1872.9873,0.006224
1874.8509,0.006426
1876.7146,0.006439
1878.5783,0.006878
1880.4419,0.006908
1882.3056,0.006544
1884.1693,0.006725
1886.0329,0.006830
1887.8966,0.006548
1889.7603,0.006345
1891.6240,0.006271
1893.4876,0.006256
1895.3513,0.006306
1897.2150,0.006198
1899.0786,0.006280
1900.9423,0.006672
1902.8060,0.006606
1904.6696,0.006415
1906.5333,0.006278
1908.3970,0.005869
1910.2606,0.006073
1912.1243,0.006971
1913.9880,0.007059
1915.8516,0.006456
1917.7153,0.006256
1919.5790,0.006312
1921.4427,0.006497
1923.3063,0.006697
1925.1700,0.006612
1927.0337,0.006494
1928.8973,0.006408
1930.7610,0.006424
1932.6247,0.006171
1934.4883,0.005721
1936.3520,0.005801
1938.2157,0.006013
1940.0793,0.006187
1941.9430,0.006134
1943.8067,0.005441
1945.6704,0.005375
1947.5340,0.005734
1949.3977,0.005606
1951.2614,0.005304
1953.1250,0.005664
1954.9887,0.005212
1956.8524,0.003744
1958.7160,0.003528
1960.5797,0.004064
1962.4434,0.004296
1964.3070,0.003497
1966.1707,0.002869
1968.0344,0.002744
1969.8980,0.001700
1971.7617,0.001301
1973.6254,0.001162
1975.4891,0.000502
1977.3527,0.001357
1979.2164,0.004083
1981.0801,0.004902
1982.9437,0.004058
1984.8074,0.004121
1986.6711,0.004533
1988.5347,0.004400
1990.3984,0.003957
1992.2621,0.003746
1994.1257,0.003662
1995.9894,0.003981
1997.8531,0.004042
1999.7167,0.003718
2001.5804,0.003969
2003.4441,0.004107
2005.3078,0.003985
2007.1714,0.004068
2009.0351,0.003269
2010.8988,0.001551
2012.7624,0.001814
2014.6261,0.002775
2016.4898,0.002696
2018.3534,0.002889
2020.2171,0.002870
2022.0808,0.002187
2023.9444,0.001900
2025.8081,0.002350
2027.6718,0.002290
2029.5355,0.002000
2031.3991,0.002358
2033.2628,0.002254
2035.1265,0.002254
2036.9901,0.003349
2038.8538,0.003889
2040.7175,0.003419
2042.5811,0.003766
2044.4448,0.004717
2046.3085,0.005963
2048.1721,0.006738
2050.0358,0.006852
2051.8995,0.007690
2053.7631,0.007730
2055.6268,0.006811
2057.4905,0.006605
2059.3542,0.006602
2061.2178,0.006831
2063.0815,0.007399
2064.9452,0.007730
2066.8088,0.007804
2068.6725,0.008068
2070.5362,0.008536
2072.3998,0.008999
2074.2635,0.008848
2076.1272,0.008408
2077.9908,0.008815
2079.8545,0.009353
2081.7182,0.008835
2083.5819,0.008217
2085.4455,0.008438
2087.3092,0.009053
2089.1729,0.009205
2091.0365,0.008618
2092.9002,0.008316
2094.7639,0.009186
2096.6275,0.009869
2098.4912,0.009419
2100.3549,0.009083
2102.2185,0.009298
2104.0822,0.009650
2105.9459,0.009531
2107.8095,0.009232
2109.6732,0.009088
2111.5369,0.008984
2113.4006,0.009459
2115.2642,0.009744
2117.1279,0.009711
2118.9916,0.009694
2120.8552,0.009396
2122.7189,0.009460
2124.5826,0.009621
2126.4462,0.009033
2128.3099,0.008810
2130.1736,0.009038
2132.0372,0.008764
2133.9009,0.008106
2135.7646,0.007537
2137.6282,0.007023
2139.4919,0.007186
2141.3556,0.007409
2143.2193,0.006861
2145.0829,0.006179
2146.9466,0.005649
2148.8103,0.005163
2150.6739,0.004805
2152.5376,0.004367
2154.4013,0.003972
2156.2649,0.002543
2158.1286,0.001514
2159.9923,0.003055
2161.8559,0.005025
2163.7196,0.004016
2165.5833,0.001956
2167.4470,0.002907
2169.3106,0.005079
2171.1743,0.005817
2173.0380,0.005591
2174.9016,0.004907
2176.7653,0.004617
2178.6290,0.004973
2180.4926,0.005950
2182.3563,0.007501
2184.2200,0.007530
2186.0836,0.006147
2187.9473,0.006406
2189.8110,0.007452
2191.6746,0.007601
2193.5383,0.007343
2195.4020,0.006920
2197.2657,0.007221
2199.1293,0.008459
2200.9930,0.009295
2202.8567,0.009530
2204.7203,0.009006
2206.5840,0.008482
2208.4477,0.008698
2210.3113,0.008987
2212.1750,0.009109
2214.0387,0.008736
2215.9023,0.008515
2217.7660,0.009001
2219.6297,0.009515
2221.4934,0.009849
2223.3570,0.009771
2225.2207,0.009250
2227.0844,0.009310
2228.9480,0.010579
2230.8117,0.010608
2232.6754,0.010227
2234.5390,0.011551
2236.4027,0.012038
2238.2664,0.011213
2240.1300,0.010923
2241.9937,0.011771
2243.8574,0.012566
2245.7210,0.012244
2247.5847,0.011618
2249.4484,0.011315
2251.3121,0.011733
2253.1757,0.011995
2255.0394,0.011813
2256.9031,0.012166
2258.7667,0.012354
2260.6304,0.012561
2262.4941,0.013129
2264.3577,0.013092
2266.2214,0.012948
2268.0851,0.013048
2269.9487,0.013480
2271.8124,0.013986
2273.6761,0.013827
2275.5397,0.013993
2277.4034,0.014269
2279.2671,0.014376
2281.1308,0.014822
2282.9944,0.015343
2284.8581,0.015664
2286.7218,0.015670
2288.5854,0.015514
2290.4491,0.015670
2292.3128,0.015950
2294.1764,0.015802
2296.0401,0.015451
2297.9038,0.015358
2299.7674,0.015650
2301.6311,0.015977
2303.4948,0.015976
2305.3585,0.015922
2307.2221,0.015839
2309.0858,0.015662
2310.9495,0.015750
2312.8131,0.016230
2314.6768,0.016493
2316.5405,0.016142
2318.4041,0.016055
2320.2678,0.016189
2322.1315,0.016407
2323.9951,0.016708
2325.8588,0.016351
2327.7225,0.015590
2329.5861,0.015316
2331.4498,0.015435
2333.3135,0.015254
2335.1772,0.015023
2337.0408,0.014979
2338.9045,0.014866
2340.7682,0.014878
2342.6318,0.015264
2344.4955,0.015670
2346.3592,0.015770
2348.2228,0.015468
2350.0865,0.015041
2351.9502,0.015148
2353.8138,0.015680
2355.6775,0.015418
2357.5412,0.014909
2359.4049,0.015090
2361.2685,0.015215
2363.1322,0.014886
2364.9959,0.014702
2366.8595,0.014945
2368.7232,0.015196
2370.5869,0.015196
2372.4505,0.015224
2374.3142,0.015455
2376.1779,0.015679
2378.0415,0.015917
2379.9052,0.016023
2381.7689,0.015751
2383.6325,0.015816
2385.4962,0.016093
2387.3599,0.016150
2389.2236,0.016172
2391.0872,0.016088
2392.9509,0.015925
2394.8146,0.015889
2396.6782,0.016070
2398.5419,0.015869
2400.4056,0.015655
2402.2692,0.016118
2404.1329,0.016451
2405.9966,0.016575
2407.8602,0.016710
2409.7239,0.016536
2411.5876,0.016303
2413.4512,0.016470
2415.3149,0.016832
2417.1786,0.016898
2419.0423,0.016828
2420.9059,0.016772
2422.7696,0.016932
2424.6333,0.017268
2426.4969,0.017039
2428.3606,0.016956
2430.2243,0.016941
2432.0879,0.017066
2433.9516,0.017355
2435.8153,0.017578
2437.6789,0.017522
2439.5426,0.017209
2441.4063,0.017066
2443.2700,0.017489
2445.1336,0.017758
2446.9973,0.017636
2448.8610,0.017915
2450.7246,0.018033
2452.5883,0.017221
2454.4520,0.016852
2456.3156,0.017215
2458.1793,0.017617
2460.0430,0.017943
2461.9066,0.017894
2463.7703,0.017862
2465.6340,0.017730
2467.4976,0.017455
2469.3613,0.017616
2471.2250,0.017645
2473.0887,0.017281
2474.9523,0.017017
2476.8160,0.017399
2478.6797,0.017674
2480.5433,0.017876
2482.4070,0.018111
2484.2707,0.017681
2486.1343,0.017772
2487.9980,0.018511
2489.8617,0.018887
2491.7253,0.018964
2493.5890,0.018763
2495.4527,0.018576
2497.3164,0.018612
2499.1800,0.018789
2501.0437,0.019286
2502.9074,0.019672
2504.7710,0.019553
2506.6347,0.019127
2508.4984,0.018962
2510.3620,0.018874
2512.2257,0.019133
2514.0894,0.019882
2515.9530,0.020181
2517.8167,0.019924
2519.6804,0.019681
2521.5440,0.019593
2523.4077,0.019514
2525.2714,0.019885
2527.1351,0.020276
