Wavenumber,Intensity
650.4205,0.173837
652.2841,0.167609
654.1478,0.159699
656.0115,0.152351
657.8751,0.144489
659.7388,0.138299
661.6025,0.134099
663.4661,0.129223
665.3298,0.127611
667.1935,0.126627
669.0571,0.125315
670.9208,0.124082
672.7845,0.123689
674.6481,0.124338
676.5118,0.125013
678.3755,0.124517
680.2392,0.126322
682.1028,0.127512
683.9665,0.127374
685.8302,0.127482
687.6938,0.127946
689.5575,0.127404
691.4212,0.128249
693.2848,0.130022
695.1485,0.130237
697.0122,0.130281
698.8758,0.131686
700.7395,0.132083
702.6032,0.132091
704.4669,0.130217
706.3305,0.126086
708.1942,0.120744
710.0579,0.115085
711.9215,0.108744
713.7852,0.103191
715.6489,0.098135
717.5125,0.093231
719.3762,0.089026
721.2399,0.085503
723.1035,0.082749
724.9672,0.079452
726.8309,0.075704
728.6945,0.073336
730.5582,0.070735
732.4219,0.067299
734.2856,0.064745
736.1492,0.063232
738.0129,0.062302
739.8766,0.062959
741.7402,0.064933
743.6039,0.066979
745.4676,0.067929
747.3312,0.068165
749.1949,0.067793
751.0586,0.067125
752.9222,0.066677
754.7859,0.066128
756.6496,0.065329
758.5132,0.064979
760.3769,0.064882
762.2406,0.064671
764.1043,0.064173
765.9679,0.063988
767.8316,0.064166
769.6953,0.064313
771.5589,0.064465
773.4226,0.065098
775.2863,0.065835
777.1499,0.066591
779.0136,0.066906
780.8773,0.067061
782.7409,0.067756
784.6046,0.068849
786.4683,0.069829
788.3320,0.071196
790.1956,0.072692
792.0593,0.074456
793.9230,0.076061
795.7866,0.077243
797.6503,0.078297
799.5140,0.079037
801.3776,0.079979
803.2413,0.081114
805.1050,0.081413
806.9686,0.081140
808.8323,0.080357
810.6960,0.078889
812.5596,0.076942
814.4233,0.075007
816.2870,0.073066
818.1507,0.071256
820.0143,0.070595
821.8780,0.070704
823.7417,0.071011
825.6053,0.072489
827.4690,0.075204
829.3327,0.077683
831.1963,0.076392
833.0600,0.071113
834.9237,0.067110
836.7873,0.066815
838.6510,0.067527
840.5147,0.067417
842.3784,0.066604
844.2420,0.065298
846.1057,0.063027
847.9694,0.058886
849.8330,0.051675
851.6967,0.043324
853.5604,0.037258
855.4240,0.034078
857.2877,0.032716
859.1514,0.032102
861.0150,0.031696
862.8787,0.031508
864.7424,0.031486
866.6060,0.031714
868.4697,0.032334
870.3334,0.033074
872.1971,0.033909
874.0607,0.034876
875.9244,0.035924
877.7881,0.037411
879.6517,0.039393
881.5154,0.041762
883.3791,0.043884
885.2427,0.044644
887.1064,0.043400
888.9701,0.040792
890.8337,0.038173
892.6974,0.036326
894.5611,0.035283
896.4247,0.035355
898.2884,0.036160
900.1521,0.037061
902.0158,0.038199
903.8794,0.040205
905.7431,0.043068
907.6068,0.046427
909.4704,0.049968
911.3341,0.053781
913.1978,0.058283
915.0614,0.060576
916.9251,0.055639
918.7888,0.045705
920.6524,0.038018
922.5161,0.034846
924.3798,0.034312
926.2435,0.034741
928.1071,0.035290
929.9708,0.035704
931.8345,0.036497
933.6981,0.037702
935.5618,0.038977
937.4255,0.040430
939.2891,0.042020
941.1528,0.043308
943.0165,0.044179
944.8801,0.044172
946.7438,0.043095
948.6075,0.041753
950.4711,0.040925
952.3348,0.040858
954.1985,0.041537
956.0622,0.042468
957.9258,0.043382
959.7895,0.044497
961.6532,0.045718
963.5168,0.047100
965.3805,0.048861
967.2442,0.050868
969.1078,0.053271
970.9715,0.056101
972.8352,0.059478
974.6988,0.064527
976.5625,0.072679
978.4262,0.085736
980.2899,0.102586
982.1535,0.108995
984.0172,0.092708
985.8809,0.073032
987.7445,0.066449
989.6082,0.066300
991.4719,0.063030
993.3355,0.055870
995.1992,0.049110
997.0629,0.045130
998.9265,0.043511
1000.7902,0.043126
1002.6539,0.043262
1004.5175,0.043707
1006.3812,0.044371
1008.2449,0.045119
1010.1086,0.045818
1011.9722,0.046559
1013.8359,0.047407
1015.6996,0.048366
1017.5632,0.049513
1019.4269,0.050824
1021.2906,0.052088
1023.1542,0.053180
1025.0179,0.054344
1026.8816,0.055557
1028.7452,0.056858
1030.6089,0.058199
1032.4726,0.059743
1034.3362,0.061480
1036.1999,0.063527
1038.0636,0.065820
1039.9273,0.068176
1041.7909,0.070889
1043.6546,0.074223
1045.5183,0.077689
1047.3819,0.080364
1049.2456,0.080753
1051.1093,0.077710
1052.9729,0.072486
1054.8366,0.067664
1056.7003,0.065119
1058.5639,0.064652
1060.4276,0.064067
1062.2913,0.062122
1064.1550,0.059826
1066.0186,0.058555
1067.8823,0.058506
1069.7460,0.059217
1071.6096,0.060326
1073.4733,0.061660
1075.3370,0.063229
1077.2006,0.064892
1079.0643,0.066668
1080.9280,0.068692
1082.7916,0.070817
1084.6553,0.073214
1086.5190,0.076050
1088.3826,0.078863
1090.2463,0.081692
1092.1100,0.085107
1093.9737,0.089114
1095.8373,0.093518
1097.7010,0.098290
1099.5647,0.103347
1101.4283,0.108427
1103.2920,0.112836
1105.1557,0.115628
1107.0193,0.115857
1108.8830,0.112845
1110.7467,0.106777
1112.6103,0.098890
1114.4740,0.090563
1116.3377,0.083195
1118.2014,0.077353
1120.0650,0.073063
1121.9287,0.070327
1123.7924,0.068675
1125.6560,0.067577
1127.5197,0.066591
1129.3834,0.065364
1131.2470,0.063765
1133.1107,0.061981
1134.9744,0.060351
1136.8380,0.059114
1138.7017,0.058253
1140.5654,0.057947
1142.4290,0.058092
1144.2927,0.058572
1146.1564,0.059453
1148.0201,0.060723
1149.8837,0.062272
1151.7474,0.064085
1153.6111,0.065805
1155.4747,0.066898
1157.3384,0.066517
1159.2021,0.063917
1161.0657,0.060259
1162.9294,0.057714
1164.7931,0.057041
1166.6567,0.057920
1168.5204,0.059806
1170.3841,0.061979
1172.2477,0.063656
1174.1114,0.063687
1175.9751,0.061755
1177.8388,0.058997
1179.7024,0.056619
1181.5661,0.055402
1183.4298,0.055173
1185.2934,0.055266
1187.1571,0.055200
1189.0208,0.054974
1190.8844,0.054652
1192.7481,0.054329
1194.6118,0.054243
1196.4754,0.054247
1198.3391,0.054256
1200.2028,0.054527
1202.0665,0.054911
1203.9301,0.055054
1205.7938,0.055067
1207.6575,0.055064
1209.5211,0.055163
1211.3848,0.055531
1213.2485,0.056051
1215.1121,0.056566
1216.9758,0.057010
1218.8395,0.057436
1220.7031,0.057804
1222.5668,0.058074
1224.4305,0.058531
1226.2941,0.059067
1228.1578,0.059538
1230.0215,0.060026
1231.8852,0.060476
1233.7488,0.060968
1235.6125,0.061695
1237.4762,0.062405
1239.3398,0.062981
1241.2035,0.063703
1243.0672,0.064620
1244.9308,0.065652
1246.7945,0.066782
1248.6582,0.068039
1250.5218,0.069413
1252.3855,0.071035
1254.2492,0.072881
1256.1129,0.074862
1257.9765,0.076966
1259.8402,0.078822
1261.7039,0.079505
1263.5675,0.078428
1265.4312,0.076130
1267.2949,0.073487
1269.1585,0.071340
1271.0222,0.070448
1272.8859,0.070762
1274.7495,0.071837
1276.6132,0.073492
1278.4769,0.075499
1280.3405,0.077823
1282.2042,0.080503
1284.0679,0.083513
1285.9316,0.086948
1287.7952,0.091237
1289.6589,0.096257
1291.5226,0.101155
1293.3862,0.104422
1295.2499,0.104605
1297.1136,0.102998
1298.9772,0.102728
1300.8409,0.105664
1302.7046,0.110834
1304.5682,0.114257
1306.4319,0.111692
1308.2956,0.101456
1310.1592,0.086378
1312.0229,0.072811
1313.8866,0.065331
1315.7503,0.064004
1317.6139,0.065972
1319.4776,0.069276
1321.3413,0.072924
1323.2049,0.076765
1325.0686,0.081106
1326.9323,0.085801
1328.7959,0.090489
1330.6596,0.094291
1332.5233,0.095724
1334.3869,0.093447
1336.2506,0.088908
1338.1143,0.085852
1339.9780,0.085603
1341.8416,0.085057
1343.7053,0.083116
1345.5690,0.081175
1347.4326,0.080493
1349.2963,0.081382
1351.1600,0.083207
1353.0236,0.085676
1354.8873,0.088892
1356.7510,0.091962
1358.6146,0.094247
1360.4783,0.096904
1362.3420,0.101723
1364.2056,0.106410
1366.0693,0.109342
1367.9330,0.113778
1369.7967,0.119355
1371.6603,0.124129
1373.5240,0.130907
1375.3877,0.138862
1377.2513,0.143867
1379.1150,0.149318
1380.9787,0.156281
1382.8423,0.162748
1384.7060,0.168038
1386.5697,0.172516
1388.4333,0.174302
1390.2970,0.170234
1392.1607,0.164165
1394.0244,0.159475
1395.8880,0.156264
1397.7517,0.152862
1399.6154,0.148539
1401.4790,0.141358
1403.3427,0.130571
1405.2064,0.114685
1407.0700,0.099209
1408.9337,0.089210
1410.7974,0.082629
1412.6610,0.077834
1414.5247,0.073488
1416.3884,0.069640
1418.2520,0.067624
1420.1157,0.067463
1421.9794,0.066944
1423.8431,0.064433
1425.7067,0.058502
1427.5704,0.052719
1429.4341,0.049067
1431.2977,0.047054
1433.1614,0.046498
1435.0251,0.047911
1436.8887,0.051995
1438.7524,0.055104
1440.6161,0.056905
1442.4797,0.060025
1444.3434,0.063311
1446.2071,0.065996
1448.0707,0.067441
1449.9344,0.065402
1451.7981,0.061359
1453.6618,0.057979
1455.5254,0.058045
1457.3891,0.064533
1459.2528,0.069130
1461.1164,0.069263
1462.9801,0.070401
1464.8438,0.072109
1466.7074,0.070412
1468.5711,0.066166
1470.4348,0.063312
1472.2984,0.063751
1474.1621,0.065523
1476.0258,0.065882
1477.8895,0.065876
1479.7531,0.066273
1481.6168,0.067816
1483.4805,0.069174
1485.3441,0.070147
1487.2078,0.072499
1489.0715,0.077032
1490.9351,0.081400
1492.7988,0.081976
1494.6625,0.082833
1496.5261,0.087091
1498.3898,0.091887
1500.2535,0.093717
1502.1171,0.093570
1503.9808,0.092619
1505.8445,0.093989
1507.7082,0.099194
1509.5718,0.096624
1511.4355,0.092358
1513.2992,0.088267
1515.1628,0.084932
1517.0265,0.082639
1518.8902,0.080378
1520.7538,0.079906
1522.6175,0.080448
1524.4812,0.079933
1526.3448,0.080617
1528.2085,0.081628
1530.0722,0.081703
1531.9359,0.083026
1533.7995,0.086457
1535.6632,0.087271
1537.5269,0.087101
1539.3905,0.092143
1541.2542,0.101644
1543.1179,0.103877
1544.9815,0.106371
1546.8452,0.108464
1548.7089,0.110797
1550.5725,0.115160
1552.4362,0.118174
1554.2999,0.120440
1556.1635,0.122569
1558.0272,0.127969
1559.8909,0.144600
1561.7546,0.141983
1563.6182,0.138895
1565.4819,0.139537
1567.3456,0.140116
1569.2092,0.142120
1571.0729,0.143979
1572.9366,0.141575
1574.8002,0.139964
1576.6639,0.141185
1578.5276,0.140536
1580.3912,0.137950
1582.2549,0.135895
1584.1186,0.134121
1585.9822,0.132369
1587.8459,0.130769
1589.7096,0.129141
1591.5733,0.127250
1593.4369,0.125323
1595.3006,0.123484
1597.1643,0.121499
1599.0279,0.119513
1600.8916,0.117771
1602.7553,0.116138
1604.6189,0.114561
1606.4826,0.113100
1608.3463,0.112080
1610.2099,0.111122
1612.0736,0.109413
1613.9373,0.107033
1615.8010,0.104851
1617.6646,0.102457
1619.5283,0.099293
1621.3920,0.096280
1623.2556,0.093132
1625.1193,0.089826
1626.9830,0.086249
1628.8466,0.081059
1630.7103,0.074926
1632.5740,0.068688
1634.4376,0.061637
1636.3013,0.053235
1638.1650,0.049333
1640.0286,0.048277
1641.8923,0.046727
1643.7560,0.045928
1645.6197,0.046739
1647.4833,0.048582
1649.3470,0.049367
1651.2107,0.049981
1653.0743,0.052656
1654.9380,0.055557
1656.8017,0.055152
1658.6653,0.055039
1660.5290,0.055023
1662.3927,0.054971
1664.2563,0.054341
1666.1200,0.053098
1667.9837,0.051745
1669.8474,0.050322
1671.7110,0.049361
1673.5747,0.049418
1675.4384,0.050580
1677.3020,0.051785
1679.1657,0.052391
1681.0294,0.053605
1682.8930,0.055054
1684.7567,0.057306
1686.6204,0.057999
1688.4840,0.056726
1690.3477,0.054777
1692.2114,0.052068
1694.0750,0.049281
1695.9387,0.046119
1697.8024,0.042706
1699.6661,0.040247
1701.5297,0.036406
1703.3934,0.033445
1705.2571,0.029826
1707.1207,0.025096
1708.9844,0.022023
1710.8481,0.019654
1712.7117,0.017793
1714.5754,0.016401
1716.4391,0.015022
1718.3027,0.014320
1720.1664,0.013972
1722.0301,0.013579
1723.8937,0.012786
1725.7574,0.011706
1727.6211,0.010653
1729.4848,0.009602
1731.3484,0.008720
1733.2121,0.008044
1735.0758,0.007210
1736.9394,0.007080
1738.8031,0.007075
1740.6668,0.006781
1742.5304,0.006603
1744.3941,0.006493
1746.2578,0.006158
1748.1214,0.005977
1749.9851,0.005818
1751.8488,0.005557
1753.7125,0.005475
1755.5761,0.005438
1757.4398,0.005239
1759.3035,0.005195
1761.1671,0.005236
1763.0308,0.004982
1764.8945,0.004837
1766.7581,0.005003
1768.6218,0.005086
1770.4855,0.005002
1772.3491,0.004735
1774.2128,0.004700
1776.0765,0.004855
1777.9401,0.004796
1779.8038,0.004715
1781.6675,0.004720
1783.5312,0.004761
1785.3948,0.004857
1787.2585,0.004818
1789.1222,0.004743
1790.9858,0.004723
1792.8495,0.004727
1794.7132,0.004686
1796.5768,0.004810
1798.4405,0.004843
1800.3042,0.004698
1802.1678,0.004654
1804.0315,0.004711
1805.8952,0.004686
1807.7589,0.004612
1809.6225,0.004516
1811.4862,0.004523
1813.3499,0.004589
1815.2135,0.004642
1817.0772,0.004598
1818.9409,0.004698
1820.8045,0.004826
1822.6682,0.004691
1824.5319,0.004583
1826.3955,0.004635
1828.2592,0.004573
1830.1229,0.004474
1831.9865,0.004468
1833.8502,0.004583
1835.7139,0.004460
1837.5776,0.004324
1839.4412,0.004400
1841.3049,0.004470
1843.1686,0.004381
1845.0322,0.004183
1846.8959,0.004062
1848.7596,0.004233
1850.6232,0.004454
1852.4869,0.004632
1854.3506,0.004564
1856.2142,0.004494
1858.0779,0.004395
1859.9416,0.004407
1861.8052,0.004403
1863.6689,0.004315
1865.5326,0.004320
1867.3963,0.004504
1869.2599,0.004511
1871.1236,0.004377
1872.9873,0.004565
1874.8509,0.004848
1876.7146,0.004800
1878.5783,0.004689
1880.4419,0.004758
1882.3056,0.004917
1884.1693,0.004692
1886.0329,0.004164
1887.8966,0.003997
1889.7603,0.004186
1891.6240,0.004368
1893.4876,0.004386
1895.3513,0.004334
1897.2150,0.004491
1899.0786,0.004492
1900.9423,0.004346
1902.8060,0.004214
1904.6696,0.004542
1906.5333,0.004863
1908.3970,0.004498
1910.2606,0.004326
1912.1243,0.004601
1913.9880,0.004494
1915.8516,0.004003
1917.7153,0.003717
1919.5790,0.004213
1921.4427,0.004677
1923.3063,0.004327
1925.1700,0.003800
1927.0337,0.004084
1928.8973,0.004084
1930.7610,0.004058
1932.6247,0.004143
1934.4883,0.004105
1936.3520,0.004155
1938.2157,0.004436
1940.0793,0.004360
1941.9430,0.004024
1943.8067,0.004514
1945.6704,0.004464
1947.5340,0.003419
1949.3977,0.002890
1951.2614,0.003159
1953.1250,0.003484
1954.9887,0.003285
1956.8524,0.002929
1958.7160,0.002721
1960.5797,0.002747
1962.4434,0.002861
1964.3070,0.003067
1966.1707,0.002647
1968.0344,0.001873
1969.8980,0.000897
1971.7617,0.000892
1973.6254,0.001099
1975.4891,0.001474
1977.3527,0.001454
1979.2164,0.002085
1981.0801,0.002774
1982.9437,0.003107
1984.8074,0.003233
1986.6711,0.002375
1988.5347,0.001618
1990.3984,0.002380
1992.2621,0.002734
1994.1257,0.002982
1995.9894,0.003286
1997.8531,0.003792
1999.7167,0.003623
2001.5804,0.003316
2003.4441,0.003612
2005.3078,0.003043
2007.1714,0.001901
2009.0351,0.002745
2010.8988,0.003201
2012.7624,0.002318
2014.6261,0.002152
2016.4898,0.002783
2018.3534,0.003196
2020.2171,0.003016
2022.0808,0.002784
2023.9444,0.003017
2025.8081,0.002807
2027.6718,0.002739
2029.5355,0.002497
2031.3991,0.002296
2033.2628,0.002358
2035.1265,0.002558
2036.9901,0.002217
2038.8538,0.002338
2040.7175,0.002796
2042.5811,0.003568
2044.4448,0.004378
2046.3085,0.004870
2048.1721,0.004420
2050.0358,0.004907
2051.8995,0.005593
2053.7631,0.005535
2055.6268,0.005870
2057.4905,0.005283
2059.3542,0.004546
2061.2178,0.005163
2063.0815,0.005302
2064.9452,0.005349
2066.8088,0.006381
2068.6725,0.007320
2070.5362,0.006827
2072.3998,0.006251
2074.2635,0.006629
2076.1272,0.006840
2077.9908,0.006563
2079.8545,0.006479
2081.7182,0.006757
2083.5819,0.007108
2085.4455,0.007441
2087.3092,0.007594
2089.1729,0.007112
2091.0365,0.006742
2092.9002,0.007199
2094.7639,0.007563
2096.6275,0.007714
2098.4912,0.007745
2100.3549,0.007694
2102.2185,0.007799
2104.0822,0.007974
2105.9459,0.008257
2107.8095,0.007869
2109.6732,0.007388
2111.5369,0.007743
2113.4006,0.008413
2115.2642,0.008394
2117.1279,0.007914
2118.9916,0.007639
2120.8552,0.007962
2122.7189,0.007871
2124.5826,0.007611
2126.4462,0.007911
2128.3099,0.008028
2130.1736,0.007734
2132.0372,0.008014
2133.9009,0.008402
2135.7646,0.007888
2137.6282,0.007683
2139.4919,0.008556
2141.3556,0.008059
2143.2193,0.006684
2145.0829,0.006185
2146.9466,0.005888
2148.8103,0.005715
2150.6739,0.005888
2152.5376,0.005516
2154.4013,0.004743
2156.2649,0.003786
2158.1286,0.003886
2159.9923,0.004796
2161.8559,0.005532
2163.7196,0.006186
2165.5833,0.006679
2167.4470,0.006504
2169.3106,0.007180
2171.1743,0.008010
2173.0380,0.007839
2174.9016,0.007416
2176.7653,0.007808
2178.6290,0.008664
2180.4926,0.009760
2182.3563,0.008709
2184.2200,0.007983
2186.0836,0.008437
2187.9473,0.008844
2189.8110,0.009064
2191.6746,0.009823
2193.5383,0.009972
2195.4020,0.010150
2197.2657,0.010874
2199.1293,0.010001
2200.9930,0.009573
2202.8567,0.009988
2204.7203,0.010056
2206.5840,0.010885
2208.4477,0.011796
2210.3113,0.011623
2212.1750,0.011111
2214.0387,0.011151
2215.9023,0.010890
2217.7660,0.010180
2219.6297,0.010059
2221.4934,0.010519
2223.3570,0.010770
2225.2207,0.010321
2227.0844,0.010521
2228.9480,0.011172
2230.8117,0.010670
2232.6754,0.009893
2234.5390,0.010421
2236.4027,0.011349
2238.2664,0.011747
2240.1300,0.011632
2241.9937,0.011817
2243.8574,0.011686
2245.7210,0.010711
2247.5847,0.010813
2249.4484,0.010880
2251.3121,0.011074
2253.1757,0.011383
2255.0394,0.010604
2256.9031,0.010302
2258.7667,0.011146
2260.6304,0.011373
2262.4941,0.010945
2264.3577,0.011058
2266.2214,0.011490
2268.0851,0.011769
2269.9487,0.011752
2271.8124,0.011787
2273.6761,0.011595
2275.5397,0.011497
2277.4034,0.011993
2279.2671,0.012616
2281.1308,0.012939
2282.9944,0.012943
2284.8581,0.012638
2286.7218,0.012877
2288.5854,0.013281
2290.4491,0.012903
2292.3128,0.012634
2294.1764,0.012660
2296.0401,0.012473
2297.9038,0.012660
2299.7674,0.012803
2301.6311,0.012638
2303.4948,0.012553
2305.3585,0.012574
2307.2221,0.013067
2309.0858,0.013446
2310.9495,0.013376
2312.8131,0.013371
2314.6768,0.013211
2316.5405,0.013092
2318.4041,0.013338
2320.2678,0.013465
2322.1315,0.013506
2323.9951,0.013616
2325.8588,0.013258
2327.7225,0.012649
2329.5861,0.012407
2331.4498,0.012346
2333.3135,0.012141
2335.1772,0.012120
2337.0408,0.012660
2338.9045,0.012987
2340.7682,0.013063
2342.6318,0.013106
2344.4955,0.013100
2346.3592,0.013028
2348.2228,0.012886
2350.0865,0.012635
2351.9502,0.012522
2353.8138,0.012440
2355.6775,0.012190
2357.5412,0.012391
2359.4049,0.012798
2361.2685,0.013137
2363.1322,0.012911
2364.9959,0.012084
2366.8595,0.012324
2368.7232,0.013238
2370.5869,0.013467
2372.4505,0.013337
2374.3142,0.013421
2376.1779,0.013762
2378.0415,0.013958
2379.9052,0.014330
2381.7689,0.014388
2383.6325,0.013838
2385.4962,0.013634
2387.3599,0.013884
2389.2236,0.014068
2391.0872,0.014350
2392.9509,0.014672
2394.8146,0.014673
2396.6782,0.014398
2398.5419,0.014692
2400.4056,0.015068
2402.2692,0.015059
2404.1329,0.014963
2405.9966,0.014989
2407.8602,0.015022
2409.7239,0.015146
2411.5876,0.015324
2413.4512,0.015614
2415.3149,0.015735
2417.1786,0.015815
2419.0423,0.015894
2420.9059,0.015796
2422.7696,0.015644
2424.6333,0.015951
2426.4969,0.016169
2428.3606,0.015989
2430.2243,0.015908
2432.0879,0.016351
2433.9516,0.016606
2435.8153,0.016419
2437.6789,0.016268
2439.5426,0.016085
2441.4063,0.016180
2443.2700,0.016639
2445.1336,0.017033
2446.9973,0.017348
2448.8610,0.017478
2450.7246,0.017662
2452.5883,0.017795
2454.4520,0.017389
2456.3156,0.017003
2458.1793,0.017398
2460.0430,0.017944
2461.9066,0.017961
2463.7703,0.017995
2465.6340,0.017749
2467.4976,0.017657
2469.3613,0.017641
2471.2250,0.017666
2473.0887,0.017757
2474.9523,0.017942
2476.8160,0.018203
2478.6797,0.018453
2480.5433,0.018356
2482.4070,0.018332
2484.2707,0.018677
2486.1343,0.019068
2487.9980,0.019025
2489.8617,0.018837
2491.7253,0.018990
2493.5890,0.019270
2495.4527,0.019616
2497.3164,0.019564
2499.1800,0.019276
2501.0437,0.019397
2502.9074,0.019605
2504.7710,0.019552
2506.6347,0.019072
2508.4984,0.019130
2510.3620,0.019631
2512.2257,0.019821
2514.0894,0.019713
2515.9530,0.019812
2517.8167,0.019937
2519.6804,0.020105
2521.5440,0.020464
2523.4077,0.020629
2525.2714,0.020586
2527.1351,0.020604
