Wavenumber,Intensity
650.4205,0.158961
652.2841,0.154605
654.1478,0.150504
656.0115,0.146718
657.8751,0.141225
659.7388,0.134197
661.6025,0.130507
663.4661,0.128090
665.3298,0.125593
667.1935,0.123429
669.0571,0.124257
670.9208,0.122754
672.7845,0.122245
674.6481,0.124458
676.5118,0.126783
678.3755,0.124894
680.2392,0.123011
682.1028,0.124141
683.9665,0.125292
685.8302,0.126206
687.6938,0.127786
689.5575,0.127473
691.4212,0.125809
693.2848,0.126187
695.1485,0.128564
697.0122,0.129071
698.8758,0.129538
700.7395,0.130253
702.6032,0.129870
704.4669,0.126736
706.3305,0.122548
708.1942,0.118525
710.0579,0.114363
711.9215,0.108072
713.7852,0.102196
715.6489,0.097566
717.5125,0.092969
719.3762,0.088550
721.2399,0.084350
723.1035,0.080353
724.9672,0.076944
726.8309,0.074026
728.6945,0.071713
730.5582,0.068764
732.4219,0.065931
734.2856,0.063646
736.1492,0.062127
738.0129,0.061042
739.8766,0.061129
741.7402,0.062825
743.6039,0.064765
745.4676,0.065683
747.3312,0.065672
749.1949,0.065548
751.0586,0.065568
752.9222,0.064697
754.7859,0.063971
756.6496,0.063778
758.5132,0.063257
760.3769,0.062860
762.2406,0.062794
764.1043,0.062639
765.9679,0.062288
767.8316,0.061936
769.6953,0.061869
771.5589,0.062022
773.4226,0.062531
775.2863,0.063295
777.1499,0.063779
779.0136,0.064014
780.8773,0.064769
782.7409,0.065562
784.6046,0.066302
786.4683,0.067673
788.3320,0.069207
790.1956,0.070441
792.0593,0.071684
793.9230,0.073010
795.7866,0.074397
797.6503,0.075291
799.5140,0.075707
801.3776,0.076526
803.2413,0.077538
805.1050,0.077652
806.9686,0.077038
808.8323,0.075730
810.6960,0.074184
812.5596,0.072090
814.4233,0.069823
816.2870,0.067903
818.1507,0.066301
820.0143,0.064915
821.8780,0.064307
823.7417,0.064670
825.6053,0.065701
827.4690,0.067539
829.3327,0.069221
831.1963,0.066791
833.0600,0.060642
834.9237,0.055983
836.7873,0.054646
838.6510,0.054856
840.5147,0.054787
842.3784,0.054268
844.2420,0.053706
846.1057,0.052563
847.9694,0.050209
849.8330,0.045815
851.6967,0.040220
853.5604,0.036077
855.4240,0.033877
857.2877,0.032636
859.1514,0.031926
861.0150,0.031601
862.8787,0.031529
864.7424,0.031431
866.6060,0.031516
868.4697,0.031769
870.3334,0.032117
872.1971,0.032695
874.0607,0.033420
875.9244,0.034299
877.7881,0.035074
879.6517,0.036018
881.5154,0.037701
883.3791,0.039417
885.2427,0.040167
887.1064,0.039684
888.9701,0.038426
890.8337,0.037065
892.6974,0.035865
894.5611,0.035375
896.4247,0.035701
898.2884,0.036394
900.1521,0.037287
902.0158,0.038685
903.8794,0.040615
905.7431,0.043222
907.6068,0.046533
909.4704,0.049985
911.3341,0.053508
913.1978,0.057388
915.0614,0.059084
916.9251,0.054102
918.7888,0.044506
920.6524,0.037102
922.5161,0.034094
924.3798,0.033453
926.2435,0.033652
928.1071,0.033979
929.9708,0.034177
931.8345,0.034677
933.6981,0.035488
935.5618,0.036407
937.4255,0.037472
939.2891,0.038606
941.1528,0.039752
943.0165,0.040724
944.8801,0.041067
946.7438,0.040734
948.6075,0.040237
950.4711,0.040021
952.3348,0.040178
954.1985,0.040603
956.0622,0.041422
957.9258,0.042473
959.7895,0.043598
961.6532,0.044739
963.5168,0.045871
965.3805,0.047350
967.2442,0.049215
969.1078,0.051466
970.9715,0.053847
972.8352,0.056604
974.6988,0.061056
976.5625,0.068369
978.4262,0.080377
980.2899,0.096288
982.1535,0.102369
984.0172,0.086058
985.8809,0.065556
987.7445,0.057700
989.6082,0.057248
991.4719,0.055622
993.3355,0.051405
995.1992,0.047208
997.0629,0.044707
998.9265,0.043660
1000.7902,0.043383
1002.6539,0.043445
1004.5175,0.043656
1006.3812,0.044156
1008.2449,0.044845
1010.1086,0.045578
1011.9722,0.046298
1013.8359,0.047063
1015.6996,0.048065
1017.5632,0.049056
1019.4269,0.050037
1021.2906,0.051193
1023.1542,0.052309
1025.0179,0.053296
1026.8816,0.054313
1028.7452,0.055444
1030.6089,0.056614
1032.4726,0.057912
1034.3362,0.059660
1036.1999,0.061546
1038.0636,0.063310
1039.9273,0.065433
1041.7909,0.068097
1043.6546,0.071048
1045.5183,0.073924
1047.3819,0.076100
1049.2456,0.076341
1051.1093,0.073399
1052.9729,0.068277
1054.8366,0.063563
1056.7003,0.060721
1058.5639,0.059737
1060.4276,0.059270
1062.2913,0.058171
1064.1550,0.056826
1066.0186,0.056087
1067.8823,0.056207
1069.7460,0.057040
1071.6096,0.058096
1073.4733,0.059337
1075.3370,0.060912
1077.2006,0.062590
1079.0643,0.064310
1080.9280,0.066264
1082.7916,0.068483
1084.6553,0.070795
1086.5190,0.073292
1088.3826,0.075981
1090.2463,0.078805
1092.1100,0.081965
1093.9737,0.085697
1095.8373,0.090056
1097.7010,0.094780
1099.5647,0.099628
1101.4283,0.104457
1103.2920,0.108693
1105.1557,0.111339
1107.0193,0.111279
1108.8830,0.108065
1110.7467,0.101925
1112.6103,0.093969
1114.4740,0.085818
1116.3377,0.078496
1118.2014,0.072430
1120.0650,0.067975
1121.9287,0.065154
1123.7924,0.063422
1125.6560,0.062222
1127.5197,0.061138
1129.3834,0.059863
1131.2470,0.058253
1133.1107,0.056539
1134.9744,0.055039
1136.8380,0.053861
1138.7017,0.052996
1140.5654,0.052581
1142.4290,0.052532
1144.2927,0.052692
1146.1564,0.053130
1148.0201,0.053895
1149.8837,0.054976
1151.7474,0.056245
1153.6111,0.057609
1155.4747,0.058788
1157.3384,0.059164
1159.2021,0.058224
1161.0657,0.056464
1162.9294,0.055114
1164.7931,0.055007
1166.6567,0.056150
1168.5204,0.057941
1170.3841,0.059908
1172.2477,0.061423
1174.1114,0.061336
1175.9751,0.059265
1177.8388,0.056281
1179.7024,0.053916
1181.5661,0.052652
1183.4298,0.052141
1185.2934,0.052099
1187.1571,0.052071
1189.0208,0.051828
1190.8844,0.051522
1192.7481,0.051182
1194.6118,0.050850
1196.4754,0.050769
1198.3391,0.050922
1200.2028,0.051087
1202.0665,0.051329
1203.9301,0.051519
1205.7938,0.051447
1207.6575,0.051359
1209.5211,0.051548
1211.3848,0.051911
1213.2485,0.052258
1215.1121,0.052541
1216.9758,0.052943
1218.8395,0.053515
1220.7031,0.053942
1222.5668,0.054213
1224.4305,0.054443
1226.2941,0.054762
1228.1578,0.055298
1230.0215,0.055876
1231.8852,0.056350
1233.7488,0.056840
1235.6125,0.057352
1237.4762,0.057901
1239.3398,0.058530
1241.2035,0.059139
1243.0672,0.059886
1244.9308,0.060811
1246.7945,0.061764
1248.6582,0.062804
1250.5218,0.063904
1252.3855,0.065102
1254.2492,0.066668
1256.1129,0.068517
1257.9765,0.070266
1259.8402,0.071766
1261.7039,0.072630
1263.5675,0.072328
1265.4312,0.071022
1267.2949,0.069242
1269.1585,0.067727
1271.0222,0.067053
1272.8859,0.067298
1274.7495,0.068154
1276.6132,0.069417
1278.4769,0.071039
1280.3405,0.072924
1282.2042,0.075094
1284.0679,0.077443
1285.9316,0.080105
1287.7952,0.083456
1289.6589,0.087368
1291.5226,0.091479
1293.3862,0.094966
1295.2499,0.096816
1297.1136,0.097497
1298.9772,0.098999
1300.8409,0.102810
1302.7046,0.108159
1304.5682,0.111455
1306.4319,0.108588
1308.2956,0.098042
1310.1592,0.082822
1312.0229,0.069173
1313.8866,0.061477
1315.7503,0.059593
1317.6139,0.060948
1319.4776,0.063733
1321.3413,0.066767
1323.2049,0.070021
1325.0686,0.073791
1326.9323,0.077756
1328.7959,0.081628
1330.6596,0.084792
1332.5233,0.086036
1334.3869,0.084433
1336.2506,0.081313
1338.1143,0.079328
1339.9780,0.079350
1341.8416,0.078998
1343.7053,0.077684
1345.5690,0.076570
1347.4326,0.076350
1349.2963,0.077146
1351.1600,0.078614
1353.0236,0.080729
1354.8873,0.083583
1356.7510,0.086287
1358.6146,0.088312
1360.4783,0.090641
1362.3420,0.094925
1364.2056,0.099091
1366.0693,0.101449
1367.9330,0.105209
1369.7967,0.110108
1371.6603,0.114169
1373.5240,0.120253
1375.3877,0.127305
1377.2513,0.131534
1379.1150,0.136345
1380.9787,0.142464
1382.8423,0.148401
1384.7060,0.153860
1386.5697,0.159575
1388.4333,0.163550
1390.2970,0.161798
1392.1607,0.158103
1394.0244,0.155000
1395.8880,0.151325
1397.7517,0.146518
1399.6154,0.140799
1401.4790,0.133105
1403.3427,0.124026
1405.2064,0.110638
1407.0700,0.095502
1408.9337,0.084141
1410.7974,0.075826
1412.6610,0.069824
1414.5247,0.065533
1416.3884,0.062975
1418.2520,0.063363
1420.1157,0.065810
1421.9794,0.066045
1423.8431,0.063818
1425.7067,0.058066
1427.5704,0.052048
1429.4341,0.048046
1431.2977,0.045729
1433.1614,0.044806
1435.0251,0.045783
1436.8887,0.049537
1438.7524,0.052292
1440.6161,0.053568
1442.4797,0.056014
1444.3434,0.058653
1446.2071,0.060955
1448.0707,0.062415
1449.9344,0.060769
1451.7981,0.057284
1453.6618,0.054130
1455.5254,0.053781
1457.3891,0.059502
1459.2528,0.063217
1461.1164,0.062726
1462.9801,0.063541
1464.8438,0.065433
1466.7074,0.064444
1468.5711,0.060962
1470.4348,0.058667
1472.2984,0.059312
1474.1621,0.060982
1476.0258,0.060942
1477.8895,0.060380
1479.7531,0.060330
1481.6168,0.061522
1483.4805,0.062605
1485.3441,0.063271
1487.2078,0.065181
1489.0715,0.068975
1490.9351,0.072624
1492.7988,0.072815
1494.6625,0.073204
1496.5261,0.076867
1498.3898,0.080928
1500.2535,0.081979
1502.1171,0.081511
1503.9808,0.080812
1505.8445,0.083286
1507.7082,0.090117
1509.5718,0.087285
1511.4355,0.083648
1513.2992,0.080975
1515.1628,0.079099
1517.0265,0.078342
1518.8902,0.076826
1520.7538,0.076868
1522.6175,0.078145
1524.4812,0.077577
1526.3448,0.078219
1528.2085,0.079121
1530.0722,0.078906
1531.9359,0.079913
1533.7995,0.083135
1535.6632,0.083558
1537.5269,0.082822
1539.3905,0.087449
1541.2542,0.096773
1543.1179,0.098292
1544.9815,0.099918
1546.8452,0.101407
1548.7089,0.103295
1550.5725,0.107175
1552.4362,0.109700
1554.2999,0.111656
1556.1635,0.113926
1558.0272,0.119670
1559.8909,0.135316
1561.7546,0.131421
1563.6182,0.128339
1565.4819,0.129586
1567.3456,0.130822
1569.2092,0.133377
1571.0729,0.135553
1572.9366,0.133551
1574.8002,0.133449
1576.6639,0.136837
1578.5276,0.136550
1580.3912,0.134345
1582.2549,0.133342
1584.1186,0.132528
1585.9822,0.131517
1587.8459,0.130380
1589.7096,0.129125
1591.5733,0.127731
1593.4369,0.126455
1595.3006,0.125141
1597.1643,0.123195
1599.0279,0.120906
1600.8916,0.119100
1602.7553,0.117875
1604.6189,0.116547
1606.4826,0.114929
1608.3463,0.113628
1610.2099,0.112138
1612.0736,0.109848
1613.9373,0.107203
1615.8010,0.104846
1617.6646,0.101198
1619.5283,0.096770
1621.3920,0.093544
1623.2556,0.090174
1625.1193,0.085733
1626.9830,0.081394
1628.8466,0.076030
1630.7103,0.069720
1632.5740,0.063643
1634.4376,0.057756
1636.3013,0.051185
1638.1650,0.047092
1640.0286,0.045220
1641.8923,0.043505
1643.7560,0.042655
1645.6197,0.043356
1647.4833,0.045634
1649.3470,0.046408
1651.2107,0.046953
1653.0743,0.050609
1654.9380,0.053320
1656.8017,0.052107
1658.6653,0.052195
1660.5290,0.052617
1662.3927,0.052958
1664.2563,0.052803
1666.1200,0.051843
1667.9837,0.051022
1669.8474,0.050304
1671.7110,0.049401
1673.5747,0.049454
1675.4384,0.050624
1677.3020,0.051579
1679.1657,0.052213
1681.0294,0.053399
1682.8930,0.054795
1684.7567,0.057453
1686.6204,0.057790
1688.4840,0.056075
1690.3477,0.054104
1692.2114,0.051693
1694.0750,0.049195
1695.9387,0.046207
1697.8024,0.043153
1699.6661,0.041310
1701.5297,0.037624
1703.3934,0.034076
1705.2571,0.030209
1707.1207,0.025260
1708.9844,0.021956
1710.8481,0.019546
1712.7117,0.017644
1714.5754,0.016184
1716.4391,0.014860
1718.3027,0.014018
1720.1664,0.013527
1722.0301,0.013222
1723.8937,0.012468
1725.7574,0.011133
1727.6211,0.009961
1729.4848,0.009064
1731.3484,0.008216
1733.2121,0.007546
1735.0758,0.006741
1736.9394,0.006583
1738.8031,0.006574
1740.6668,0.006251
1742.5304,0.006065
1744.3941,0.005917
1746.2578,0.005659
1748.1214,0.005466
1749.9851,0.005314
1751.8488,0.005111
1753.7125,0.004966
1755.5761,0.005041
1757.4398,0.004994
1759.3035,0.004844
1761.1671,0.004902
1763.0308,0.004888
1764.8945,0.004741
1766.7581,0.004802
1768.6218,0.004737
1770.4855,0.004509
1772.3491,0.004361
1774.2128,0.004182
1776.0765,0.004220
1777.9401,0.004363
1779.8038,0.004365
1781.6675,0.004325
1783.5312,0.004421
1785.3948,0.004618
1787.2585,0.004706
1789.1222,0.004679
1790.9858,0.004569
1792.8495,0.004326
1794.7132,0.004203
1796.5768,0.004533
1798.4405,0.004725
1800.3042,0.004483
1802.1678,0.004374
1804.0315,0.004576
1805.8952,0.004661
1807.7589,0.004670
1809.6225,0.004580
1811.4862,0.004494
1813.3499,0.004512
1815.2135,0.004439
1817.0772,0.004337
1818.9409,0.004586
1820.8045,0.004772
1822.6682,0.004656
1824.5319,0.004655
1826.3955,0.004612
1828.2592,0.004391
1830.1229,0.004238
1831.9865,0.004157
1833.8502,0.004428
1835.7139,0.004565
1837.5776,0.004384
1839.4412,0.004213
1841.3049,0.004289
1843.1686,0.004330
1845.0322,0.004148
1846.8959,0.004129
1848.7596,0.004336
1850.6232,0.004438
1852.4869,0.004423
1854.3506,0.004450
1856.2142,0.004621
1858.0779,0.004516
1859.9416,0.004498
1861.8052,0.004855
1863.6689,0.004737
1865.5326,0.004271
1867.3963,0.004424
1869.2599,0.004597
1871.1236,0.004379
1872.9873,0.004434
1874.8509,0.004624
1876.7146,0.004552
1878.5783,0.004458
1880.4419,0.004592
1882.3056,0.004608
1884.1693,0.004349
1886.0329,0.004365
1887.8966,0.004608
1889.7603,0.004680
1891.6240,0.004284
1893.4876,0.004121
1895.3513,0.004505
1897.2150,0.004772
1899.0786,0.004428
1900.9423,0.004228
1902.8060,0.004531
1904.6696,0.004564
1906.5333,0.004212
1908.3970,0.004171
1910.2606,0.004585
1912.1243,0.005014
1913.9880,0.004901
1915.8516,0.004603
1917.7153,0.004246
1919.5790,0.003907
1921.4427,0.003951
1923.3063,0.004267
1925.1700,0.004301
1927.0337,0.004192
1928.8973,0.004159
1930.7610,0.004329
1932.6247,0.004512
1934.4883,0.004477
1936.3520,0.004346
1938.2157,0.004382
1940.0793,0.004505
1941.9430,0.004324
1943.8067,0.003363
1945.6704,0.003151
1947.5340,0.004011
1949.3977,0.004347
1951.2614,0.003806
1953.1250,0.003314
1954.9887,0.003193
1956.8524,0.003714
1958.7160,0.003716
1960.5797,0.003129
1962.4434,0.002650
1964.3070,0.002606
1966.1707,0.002750
1968.0344,0.002407
1969.8980,0.001971
1971.7617,0.001872
1973.6254,0.001994
1975.4891,0.002239
1977.3527,0.002138
1979.2164,0.002841
1981.0801,0.003603
1982.9437,0.003433
1984.8074,0.003649
1986.6711,0.003662
1988.5347,0.002737
1990.3984,0.003661
1992.2621,0.004630
1994.1257,0.003490
1995.9894,0.002704
1997.8531,0.002675
1999.7167,0.002819
2001.5804,0.003555
2003.4441,0.004263
2005.3078,0.003442
2007.1714,0.001805
2009.0351,0.001993
2010.8988,0.002860
2012.7624,0.002148
2014.6261,0.001414
2016.4898,0.001654
2018.3534,0.002310
2020.2171,0.003141
2022.0808,0.002602
2023.9444,0.001893
2025.8081,0.002182
2027.6718,0.002295
2029.5355,0.001575
2031.3991,0.001687
2033.2628,0.002282
2035.1265,0.003903
2036.9901,0.005144
2038.8538,0.004681
2040.7175,0.003513
2042.5811,0.003418
2044.4448,0.003680
2046.3085,0.003984
2048.1721,0.004704
2050.0358,0.005530
2051.8995,0.005181
2053.7631,0.004844
2055.6268,0.004925
2057.4905,0.005052
2059.3542,0.005388
2061.2178,0.006505
2063.0815,0.006707
2064.9452,0.005917
2066.8088,0.005535
2068.6725,0.005726
2070.5362,0.005862
2072.3998,0.006381
2074.2635,0.006727
2076.1272,0.006772
2077.9908,0.006550
2079.8545,0.006433
2081.7182,0.006539
2083.5819,0.006503
2085.4455,0.006470
2087.3092,0.006756
2089.1729,0.006547
2091.0365,0.006450
2092.9002,0.006533
2094.7639,0.006457
2096.6275,0.006563
2098.4912,0.006981
2100.3549,0.007121
2102.2185,0.007353
2104.0822,0.007656
2105.9459,0.007758
2107.8095,0.007924
2109.6732,0.007855
2111.5369,0.008055
2113.4006,0.008070
2115.2642,0.007903
2117.1279,0.008491
2118.9916,0.008472
2120.8552,0.007341
2122.7189,0.006821
2124.5826,0.007197
2126.4462,0.007151
2128.3099,0.007059
2130.1736,0.006801
2132.0372,0.006330
2133.9009,0.006876
2135.7646,0.007231
2137.6282,0.006765
2139.4919,0.006696
2141.3556,0.007222
2143.2193,0.006749
2145.0829,0.005405
2146.9466,0.005358
2148.8103,0.005368
2150.6739,0.004958
2152.5376,0.004928
2154.4013,0.003407
2156.2649,0.001904
2158.1286,0.002677
2159.9923,0.003950
2161.8559,0.005894
2163.7196,0.007393
2165.5833,0.006728
2167.4470,0.005638
2169.3106,0.005138
2171.1743,0.006142
2173.0380,0.007380
2174.9016,0.006729
2176.7653,0.006772
2178.6290,0.006908
2180.4926,0.006822
2182.3563,0.007021
2184.2200,0.007639
2186.0836,0.008010
2187.9473,0.008301
2189.8110,0.008091
2191.6746,0.008299
2193.5383,0.008535
2195.4020,0.008642
2197.2657,0.008903
2199.1293,0.009307
2200.9930,0.009868
2202.8567,0.009494
2204.7203,0.008741
2206.5840,0.009288
2208.4477,0.009741
2210.3113,0.009882
2212.1750,0.009844
2214.0387,0.009678
2215.9023,0.009022
2217.7660,0.008686
2219.6297,0.009008
2221.4934,0.009620
2223.3570,0.009266
2225.2207,0.009159
2227.0844,0.010492
2228.9480,0.010505
2230.8117,0.009716
2232.6754,0.009378
2234.5390,0.009452
2236.4027,0.010366
2238.2664,0.010690
2240.1300,0.010200
2241.9937,0.009632
2243.8574,0.009893
2245.7210,0.010388
2247.5847,0.010565
2249.4484,0.010735
2251.3121,0.010832
2253.1757,0.010855
2255.0394,0.011025
2256.9031,0.010956
2258.7667,0.010513
2260.6304,0.010400
2262.4941,0.010624
2264.3577,0.010746
2266.2214,0.010743
2268.0851,0.011336
2269.9487,0.011526
2271.8124,0.011254
2273.6761,0.011433
2275.5397,0.011592
2277.4034,0.011505
2279.2671,0.011804
2281.1308,0.012093
2282.9944,0.012244
2284.8581,0.012477
2286.7218,0.012620
2288.5854,0.012491
2290.4491,0.012136
2292.3128,0.012124
2294.1764,0.012026
2296.0401,0.012150
2297.9038,0.012501
2299.7674,0.012376
2301.6311,0.012232
2303.4948,0.012019
2305.3585,0.012211
2307.2221,0.012708
2309.0858,0.012694
2310.9495,0.012630
2312.8131,0.012347
2314.6768,0.012296
2316.5405,0.012703
2318.4041,0.012571
2320.2678,0.012483
2322.1315,0.012812
2323.9951,0.012939
2325.8588,0.012698
2327.7225,0.012299
2329.5861,0.012083
2331.4498,0.012045
2333.3135,0.011876
2335.1772,0.011823
2337.0408,0.011760
2338.9045,0.011530
2340.7682,0.011534
2342.6318,0.011686
2344.4955,0.011785
2346.3592,0.011674
2348.2228,0.011587
2350.0865,0.011405
2351.9502,0.011582
2353.8138,0.011980
2355.6775,0.011858
2357.5412,0.011529
2359.4049,0.011564
2361.2685,0.011515
2363.1322,0.011443
2364.9959,0.011412
2366.8595,0.011773
2368.7232,0.012083
2370.5869,0.012082
2372.4505,0.012145
2374.3142,0.012212
2376.1779,0.012399
2378.0415,0.012286
2379.9052,0.012318
2381.7689,0.012437
2383.6325,0.012398
2385.4962,0.012612
2387.3599,0.012955
2389.2236,0.013076
2391.0872,0.013047
2392.9509,0.012859
2394.8146,0.012890
2396.6782,0.013215
2398.5419,0.013503
2400.4056,0.013396
2402.2692,0.013286
2404.1329,0.013512
2405.9966,0.013639
2407.8602,0.013574
2409.7239,0.013843
2411.5876,0.014064
2413.4512,0.013878
2415.3149,0.013737
2417.1786,0.014021
2419.0423,0.014206
2420.9059,0.014009
2422.7696,0.014066
2424.6333,0.014635
2426.4969,0.014825
2428.3606,0.014599
2430.2243,0.014706
2432.0879,0.014854
2433.9516,0.014792
2435.8153,0.014623
2437.6789,0.014498
2439.5426,0.014683
2441.4063,0.015127
2443.2700,0.015453
2445.1336,0.015662
2446.9973,0.015896
2448.8610,0.015865
2450.7246,0.015712
2452.5883,0.015730
2454.4520,0.015580
2456.3156,0.015211
2458.1793,0.015239
2460.0430,0.015580
2461.9066,0.015924
2463.7703,0.016212
2465.6340,0.015951
2467.4976,0.015444
2469.3613,0.015365
2471.2250,0.015621
2473.0887,0.015930
2474.9523,0.015879
2476.8160,0.016094
2478.6797,0.016176
2480.5433,0.016363
2482.4070,0.016350
2484.2707,0.016345
2486.1343,0.016577
2487.9980,0.016755
2489.8617,0.016600
2491.7253,0.016920
2493.5890,0.017432
2495.4527,0.017165
2497.3164,0.016999
2499.1800,0.017390
2501.0437,0.017697
2502.9074,0.017539
2504.7710,0.017276
2506.6347,0.017294
2508.4984,0.017338
2510.3620,0.017601
2512.2257,0.017527
2514.0894,0.017193
2515.9530,0.017334
2517.8167,0.017842
2519.6804,0.018273
2521.5440,0.018443
2523.4077,0.018008
2525.2714,0.018017
2527.1351,0.018496
