Wavenumber,Intensity
650.4205,0.214350
652.2841,0.211632
654.1478,0.210213
656.0115,0.208253
657.8751,0.209497
659.7388,0.210059
661.6025,0.214566
663.4661,0.216349
665.3298,0.216224
667.1935,0.219390
669.0571,0.222046
670.9208,0.211094
672.7845,0.201317
674.6481,0.193623
676.5118,0.188092
678.3755,0.186861
680.2392,0.187710
682.1028,0.185434
683.9665,0.183406
685.8302,0.181842
687.6938,0.181459
689.5575,0.180964
691.4212,0.182489
693.2848,0.182450
695.1485,0.182514
697.0122,0.183823
698.8758,0.186595
700.7395,0.188667
702.6032,0.190635
704.4669,0.190464
706.3305,0.188599
708.1942,0.185627
710.0579,0.181085
711.9215,0.172960
713.7852,0.165284
715.6489,0.157814
717.5125,0.146970
719.3762,0.135240
721.2399,0.126819
723.1035,0.121215
724.9672,0.116325
726.8309,0.112295
728.6945,0.108708
730.5582,0.105167
732.4219,0.102975
734.2856,0.100892
736.1492,0.098177
738.0129,0.097330
739.8766,0.098769
741.7402,0.101726
743.6039,0.105540
745.4676,0.107915
747.3312,0.108654
749.1949,0.108336
751.0586,0.107393
752.9222,0.106563
754.7859,0.104356
756.6496,0.101285
758.5132,0.099645
760.3769,0.099488
762.2406,0.101109
764.1043,0.104173
765.9679,0.107652
767.8316,0.109639
769.6953,0.108619
771.5589,0.106217
773.4226,0.106054
775.2863,0.106464
777.1499,0.102878
779.0136,0.097860
780.8773,0.095998
782.7409,0.095458
784.6046,0.095370
786.4683,0.096239
788.3320,0.097922
790.1956,0.099451
792.0593,0.101197
793.9230,0.103572
795.7866,0.106358
797.6503,0.109075
799.5140,0.111366
801.3776,0.112244
803.2413,0.111615
805.1050,0.110248
806.9686,0.109057
808.8323,0.108137
810.6960,0.106485
812.5596,0.103811
814.4233,0.101232
816.2870,0.099536
818.1507,0.098717
820.0143,0.098957
821.8780,0.100393
823.7417,0.101258
825.6053,0.101289
827.4690,0.102551
829.3327,0.105100
831.1963,0.103986
833.0600,0.095783
834.9237,0.084682
836.7873,0.075881
838.6510,0.071367
840.5147,0.071554
842.3784,0.075075
844.2420,0.079665
846.1057,0.082682
847.9694,0.082010
849.8330,0.077046
851.6967,0.070536
853.5604,0.065686
855.4240,0.063115
857.2877,0.061892
859.1514,0.061045
861.0150,0.060402
862.8787,0.060238
864.7424,0.060470
866.6060,0.060809
868.4697,0.061216
870.3334,0.061996
872.1971,0.062512
874.0607,0.062258
875.9244,0.061780
877.7881,0.061716
879.6517,0.061911
881.5154,0.062330
883.3791,0.063352
885.2427,0.064904
887.1064,0.066785
888.9701,0.068211
890.8337,0.068368
892.6974,0.067999
894.5611,0.068539
896.4247,0.070343
898.2884,0.073053
900.1521,0.075941
902.0158,0.078022
903.8794,0.078704
905.7431,0.079862
907.6068,0.083556
909.4704,0.089740
911.3341,0.098111
913.1978,0.108004
915.0614,0.114396
916.9251,0.109584
918.7888,0.096072
920.6524,0.084851
922.5161,0.079761
924.3798,0.077002
926.2435,0.073988
928.1071,0.071127
929.9708,0.069148
931.8345,0.068086
933.6981,0.067971
935.5618,0.069201
937.4255,0.071491
939.2891,0.074906
941.1528,0.079254
943.0165,0.082736
944.8801,0.083505
946.7438,0.082471
948.6075,0.080547
950.4711,0.078135
952.3348,0.076551
954.1985,0.076665
956.0622,0.078340
957.9258,0.080920
959.7895,0.083941
961.6532,0.087210
963.5168,0.089807
965.3805,0.091508
967.2442,0.093504
969.1078,0.096459
970.9715,0.100080
972.8352,0.104557
974.6988,0.111233
976.5625,0.121717
978.4262,0.138420
980.2899,0.160975
982.1535,0.170443
984.0172,0.147067
985.8809,0.116623
987.7445,0.103671
989.6082,0.102769
991.4719,0.104596
993.3355,0.106680
995.1992,0.108737
997.0629,0.110636
998.9265,0.112546
1000.7902,0.114296
1002.6539,0.115555
1004.5175,0.116344
1006.3812,0.116233
1008.2449,0.115043
1010.1086,0.113756
1011.9722,0.113319
1013.8359,0.113731
1015.6996,0.114915
1017.5632,0.116957
1019.4269,0.119474
1021.2906,0.122223
1023.1542,0.125349
1025.0179,0.128596
1026.8816,0.131203
1028.7452,0.132782
1030.6089,0.133715
1032.4726,0.134530
1034.3362,0.134954
1036.1999,0.134465
1038.0636,0.133900
1039.9273,0.134662
1041.7909,0.136890
1043.6546,0.139880
1045.5183,0.142778
1047.3819,0.144242
1049.2456,0.142482
1051.1093,0.136171
1052.9729,0.126740
1054.8366,0.118011
1056.7003,0.112488
1058.5639,0.110412
1060.4276,0.110635
1062.2913,0.111556
1064.1550,0.111963
1066.0186,0.111169
1067.8823,0.109668
1069.7460,0.108926
1071.6096,0.109529
1073.4733,0.111033
1075.3370,0.113173
1077.2006,0.115770
1079.0643,0.118414
1080.9280,0.121165
1082.7916,0.124003
1084.6553,0.126649
1086.5190,0.128777
1088.3826,0.130196
1090.2463,0.132064
1092.1100,0.135334
1093.9737,0.139650
1095.8373,0.144776
1097.7010,0.150687
1099.5647,0.157242
1101.4283,0.164078
1103.2920,0.170188
1105.1557,0.174111
1107.0193,0.174185
1108.8830,0.169753
1110.7467,0.161302
1112.6103,0.150589
1114.4740,0.139714
1116.3377,0.130133
1118.2014,0.122540
1120.0650,0.117405
1121.9287,0.114422
1123.7924,0.112575
1125.6560,0.111078
1127.5197,0.109628
1129.3834,0.108250
1131.2470,0.107052
1133.1107,0.105831
1134.9744,0.104307
1136.8380,0.102417
1138.7017,0.100298
1140.5654,0.098447
1142.4290,0.097201
1144.2927,0.096116
1146.1564,0.094856
1148.0201,0.093411
1149.8837,0.091957
1151.7474,0.091006
1153.6111,0.090790
1155.4747,0.091143
1157.3384,0.091954
1159.2021,0.093014
1161.0657,0.094596
1162.9294,0.096986
1164.7931,0.100122
1166.6567,0.104093
1168.5204,0.108402
1170.3841,0.112130
1172.2477,0.114346
1174.1114,0.113587
1175.9751,0.109419
1177.8388,0.103705
1179.7024,0.098877
1181.5661,0.096382
1183.4298,0.096062
1185.2934,0.096528
1187.1571,0.096380
1189.0208,0.094809
1190.8844,0.091345
1192.7481,0.086572
1194.6118,0.082427
1196.4754,0.080099
1198.3391,0.079155
1200.2028,0.078910
1202.0665,0.078921
1203.9301,0.078951
1205.7938,0.078898
1207.6575,0.078740
1209.5211,0.078699
1211.3848,0.078943
1213.2485,0.079414
1215.1121,0.080039
1216.9758,0.080782
1218.8395,0.081650
1220.7031,0.082592
1222.5668,0.083636
1224.4305,0.084946
1226.2941,0.086521
1228.1578,0.088226
1230.0215,0.089824
1231.8852,0.091095
1233.7488,0.092129
1235.6125,0.093287
1237.4762,0.094594
1239.3398,0.095324
1241.2035,0.094901
1243.0672,0.094028
1244.9308,0.093717
1246.7945,0.094083
1248.6582,0.094803
1250.5218,0.095452
1252.3855,0.096067
1254.2492,0.097071
1256.1129,0.098369
1257.9765,0.099860
1259.8402,0.101488
1261.7039,0.103138
1263.5675,0.105066
1265.4312,0.107423
1267.2949,0.110082
1269.1585,0.112396
1271.0222,0.112875
1272.8859,0.111154
1274.7495,0.109420
1276.6132,0.109491
1278.4769,0.111168
1280.3405,0.113825
1282.2042,0.117035
1284.0679,0.120664
1285.9316,0.125030
1287.7952,0.130555
1289.6589,0.137067
1291.5226,0.144547
1293.3862,0.152375
1295.2499,0.158466
1297.1136,0.160985
1298.9772,0.161451
1300.8409,0.164085
1302.7046,0.170701
1304.5682,0.178557
1306.4319,0.182442
1308.2956,0.176674
1310.1592,0.161184
1312.0229,0.144313
1313.8866,0.132647
1315.7503,0.127368
1317.6139,0.126626
1319.4776,0.127518
1321.3413,0.128673
1323.2049,0.131692
1325.0686,0.137481
1326.9323,0.144079
1328.7959,0.148030
1330.6596,0.147224
1332.5233,0.143611
1334.3869,0.141149
1336.2506,0.142466
1338.1143,0.147573
1339.9780,0.153352
1341.8416,0.154649
1343.7053,0.153817
1345.5690,0.154539
1347.4326,0.157662
1349.2963,0.161304
1351.1600,0.162218
1353.0236,0.161332
1354.8873,0.162608
1356.7510,0.165777
1358.6146,0.167612
1360.4783,0.168000
1362.3420,0.169182
1364.2056,0.168307
1366.0693,0.166723
1367.9330,0.170093
1369.7967,0.177046
1371.6603,0.182339
1373.5240,0.186680
1375.3877,0.188809
1377.2513,0.191424
1379.1150,0.200252
1380.9787,0.212863
1382.8423,0.224517
1384.7060,0.234523
1386.5697,0.243834
1388.4333,0.250039
1390.2970,0.251975
1392.1607,0.254728
1394.0244,0.258229
1395.8880,0.255634
1397.7517,0.245335
1399.6154,0.232184
1401.4790,0.220271
1403.3427,0.211931
1405.2064,0.199399
1407.0700,0.180592
1408.9337,0.161320
1410.7974,0.143414
1412.6610,0.129543
1414.5247,0.120856
1416.3884,0.116461
1418.2520,0.116761
1420.1157,0.119227
1421.9794,0.118957
1423.8431,0.114770
1425.7067,0.104003
1427.5704,0.094136
1429.4341,0.088480
1431.2977,0.086117
1433.1614,0.086451
1435.0251,0.090459
1436.8887,0.098836
1438.7524,0.101747
1440.6161,0.100429
1442.4797,0.100166
1444.3434,0.100817
1446.2071,0.102893
1448.0707,0.106156
1449.9344,0.107256
1451.7981,0.106777
1453.6618,0.105889
1455.5254,0.107140
1457.3891,0.112504
1459.2528,0.111109
1461.1164,0.107999
1462.9801,0.109002
1464.8438,0.113031
1466.7074,0.113756
1468.5711,0.111693
1470.4348,0.111418
1472.2984,0.113626
1474.1621,0.112444
1476.0258,0.110097
1477.8895,0.108929
1479.7531,0.109689
1481.6168,0.112826
1483.4805,0.115592
1485.3441,0.118269
1487.2078,0.123344
1489.0715,0.131592
1490.9351,0.138700
1492.7988,0.139346
1494.6625,0.141524
1496.5261,0.149342
1498.3898,0.157362
1500.2535,0.160411
1502.1171,0.161218
1503.9808,0.162564
1505.8445,0.170382
1507.7082,0.184758
1509.5718,0.180610
1511.4355,0.176404
1513.2992,0.173045
1515.1628,0.169927
1517.0265,0.165617
1518.8902,0.158313
1520.7538,0.154387
1522.6175,0.147693
1524.4812,0.141311
1526.3448,0.137923
1528.2085,0.134071
1530.0722,0.130830
1531.9359,0.131033
1533.7995,0.133767
1535.6632,0.132785
1537.5269,0.133140
1539.3905,0.141535
1541.2542,0.155634
1543.1179,0.159382
1544.9815,0.164486
1546.8452,0.168604
1548.7089,0.173683
1550.5725,0.182301
1552.4362,0.188719
1554.2999,0.194251
1556.1635,0.200552
1558.0272,0.212549
1559.8909,0.236187
1561.7546,0.229695
1563.6182,0.227443
1565.4819,0.231287
1567.3456,0.235397
1569.2092,0.241917
1571.0729,0.247292
1572.9366,0.247052
1574.8002,0.249748
1576.6639,0.256831
1578.5276,0.258529
1580.3912,0.257498
1582.2549,0.256750
1584.1186,0.254355
1585.9822,0.250085
1587.8459,0.244115
1589.7096,0.236948
1591.5733,0.229624
1593.4369,0.223039
1595.3006,0.217193
1597.1643,0.212467
1599.0279,0.209166
1600.8916,0.206922
1602.7553,0.205052
1604.6189,0.203472
1606.4826,0.201464
1608.3463,0.197742
1610.2099,0.191889
1612.0736,0.184526
1613.9373,0.176767
1615.8010,0.169216
1617.6646,0.157705
1619.5283,0.149401
1621.3920,0.144846
1623.2556,0.137994
1625.1193,0.129331
1626.9830,0.122444
1628.8466,0.113290
1630.7103,0.103846
1632.5740,0.096519
1634.4376,0.089770
1636.3013,0.079888
1638.1650,0.072644
1640.0286,0.070432
1641.8923,0.068332
1643.7560,0.067302
1645.6197,0.068014
1647.4833,0.068307
1649.3470,0.067585
1651.2107,0.069507
1653.0743,0.073729
1654.9380,0.074708
1656.8017,0.074634
1658.6653,0.075370
1660.5290,0.075456
1662.3927,0.074800
1664.2563,0.072628
1666.1200,0.070670
1667.9837,0.069514
1669.8474,0.067702
1671.7110,0.065721
1673.5747,0.065986
1675.4384,0.067492
1677.3020,0.068881
1679.1657,0.071135
1681.0294,0.074194
1682.8930,0.078182
1684.7567,0.082936
1686.6204,0.083655
1688.4840,0.083394
1690.3477,0.081962
1692.2114,0.079194
1694.0750,0.076911
1695.9387,0.073761
1697.8024,0.069070
1699.6661,0.067204
1701.5297,0.060136
1703.3934,0.055052
1705.2571,0.050424
1707.1207,0.042660
1708.9844,0.037654
1710.8481,0.034279
1712.7117,0.031588
1714.5754,0.029934
1716.4391,0.028439
1718.3027,0.026798
1720.1664,0.024865
1722.0301,0.024433
1723.8937,0.023487
1725.7574,0.021775
1727.6211,0.020250
1729.4848,0.019008
1731.3484,0.017855
1733.2121,0.017653
1735.0758,0.015774
1736.9394,0.014598
1738.8031,0.015177
1740.6668,0.014549
1742.5304,0.014102
1744.3941,0.014127
1746.2578,0.013940
1748.1214,0.013858
1749.9851,0.013437
1751.8488,0.012526
1753.7125,0.011804
1755.5761,0.012284
1757.4398,0.012281
1759.3035,0.011843
1761.1671,0.011941
1763.0308,0.011346
1764.8945,0.011015
1766.7581,0.011474
1768.6218,0.011427
1770.4855,0.011432
1772.3491,0.011478
1774.2128,0.010488
1776.0765,0.010380
1777.9401,0.010504
1779.8038,0.010675
1781.6675,0.010368
1783.5312,0.010366
1785.3948,0.010488
1787.2585,0.010322
1789.1222,0.010661
1790.9858,0.011205
1792.8495,0.010739
1794.7132,0.009939
1796.5768,0.010047
1798.4405,0.010341
1800.3042,0.010618
1802.1678,0.010408
1804.0315,0.010193
1805.8952,0.010266
1807.7589,0.010422
1809.6225,0.010458
1811.4862,0.010216
1813.3499,0.010020
1815.2135,0.010193
1817.0772,0.010037
1818.9409,0.009943
1820.8045,0.010065
1822.6682,0.010217
1824.5319,0.010372
1826.3955,0.009890
1828.2592,0.009900
1830.1229,0.010033
1831.9865,0.009289
1833.8502,0.009330
1835.7139,0.009414
1837.5776,0.009634
1839.4412,0.009645
1841.3049,0.009685
1843.1686,0.010055
1845.0322,0.009790
1846.8959,0.009183
1848.7596,0.009330
1850.6232,0.009411
1852.4869,0.009611
1854.3506,0.009615
1856.2142,0.009767
1858.0779,0.009707
1859.9416,0.009647
1861.8052,0.009407
1863.6689,0.009351
1865.5326,0.009716
1867.3963,0.010126
1869.2599,0.009576
1871.1236,0.009021
1872.9873,0.009117
1874.8509,0.009212
1876.7146,0.009283
1878.5783,0.009356
1880.4419,0.009047
1882.3056,0.009164
1884.1693,0.009389
1886.0329,0.009468
1887.8966,0.009439
1889.7603,0.009210
1891.6240,0.008742
1893.4876,0.008937
1895.3513,0.008968
1897.2150,0.008983
1899.0786,0.009058
1900.9423,0.009146
1902.8060,0.009114
1904.6696,0.009238
1906.5333,0.009678
1908.3970,0.009763
1910.2606,0.008818
1912.1243,0.008506
1913.9880,0.008866
1915.8516,0.009330
1917.7153,0.009370
1919.5790,0.008770
1921.4427,0.008831
1923.3063,0.008791
1925.1700,0.008538
1927.0337,0.008825
1928.8973,0.008620
1930.7610,0.008573
1932.6247,0.008691
1934.4883,0.009001
1936.3520,0.008597
1938.2157,0.008068
1940.0793,0.008222
1941.9430,0.008917
1943.8067,0.008379
1945.6704,0.007862
1947.5340,0.007399
1949.3977,0.007236
1951.2614,0.007078
1953.1250,0.007136
1954.9887,0.006987
1956.8524,0.006542
1958.7160,0.006056
1960.5797,0.006423
1962.4434,0.006104
1964.3070,0.004558
1966.1707,0.003167
1968.0344,0.003366
1969.8980,0.003844
1971.7617,0.003466
1973.6254,0.002432
1975.4891,0.002540
1977.3527,0.003117
1979.2164,0.004468
1981.0801,0.005175
1982.9437,0.005228
1984.8074,0.004896
1986.6711,0.005527
1988.5347,0.005685
1990.3984,0.006127
1992.2621,0.007185
1994.1257,0.006240
1995.9894,0.005289
1997.8531,0.006083
1999.7167,0.006356
2001.5804,0.005999
2003.4441,0.005764
2005.3078,0.005703
2007.1714,0.005270
2009.0351,0.005036
2010.8988,0.004535
2012.7624,0.004104
2014.6261,0.003355
2016.4898,0.003356
2018.3534,0.003583
2020.2171,0.004880
2022.0808,0.005828
2023.9444,0.005042
2025.8081,0.003654
2027.6718,0.003672
2029.5355,0.003709
2031.3991,0.004195
2033.2628,0.005605
2035.1265,0.006427
2036.9901,0.006451
2038.8538,0.006837
2040.7175,0.007101
2042.5811,0.008319
2044.4448,0.008599
2046.3085,0.008472
2048.1721,0.009134
2050.0358,0.010317
2051.8995,0.010887
2053.7631,0.010793
2055.6268,0.010847
2057.4905,0.011627
2059.3542,0.012515
2061.2178,0.013420
2063.0815,0.013388
2064.9452,0.012610
2066.8088,0.011618
2068.6725,0.011934
2070.5362,0.013426
2072.3998,0.014657
2074.2635,0.015003
2076.1272,0.014928
2077.9908,0.015329
2079.8545,0.016026
2081.7182,0.016077
2083.5819,0.015883
2085.4455,0.015752
2087.3092,0.016349
2089.1729,0.016304
2091.0365,0.015686
2092.9002,0.015990
2094.7639,0.016956
2096.6275,0.017601
2098.4912,0.018140
2100.3549,0.017968
2102.2185,0.017516
2104.0822,0.017242
2105.9459,0.017166
2107.8095,0.017181
2109.6732,0.017818
2111.5369,0.018756
2113.4006,0.019500
2115.2642,0.019181
2117.1279,0.018402
2118.9916,0.018111
2120.8552,0.017827
2122.7189,0.017882
2124.5826,0.018503
2126.4462,0.017836
2128.3099,0.016876
2130.1736,0.016763
2132.0372,0.016904
2133.9009,0.016379
2135.7646,0.015841
2137.6282,0.015137
2139.4919,0.014296
2141.3556,0.013750
2143.2193,0.013888
2145.0829,0.013657
2146.9466,0.012092
2148.8103,0.011152
2150.6739,0.011406
2152.5376,0.010048
2154.4013,0.007203
2156.2649,0.004813
2158.1286,0.004206
2159.9923,0.004462
2161.8559,0.006878
2163.7196,0.008493
2165.5833,0.008191
2167.4470,0.008027
2169.3106,0.008777
2171.1743,0.009170
2173.0380,0.009312
2174.9016,0.009622
2176.7653,0.009865
2178.6290,0.009942
2180.4926,0.010267
2182.3563,0.009766
2184.2200,0.009209
2186.0836,0.008798
2187.9473,0.009513
2189.8110,0.010119
2191.6746,0.010520
2193.5383,0.010908
2195.4020,0.010760
2197.2657,0.009655
2199.1293,0.009893
2200.9930,0.010822
2202.8567,0.011644
2204.7203,0.011948
2206.5840,0.011692
2208.4477,0.011450
2210.3113,0.011776
2212.1750,0.011803
2214.0387,0.012326
2215.9023,0.013042
2217.7660,0.013112
2219.6297,0.012490
2221.4934,0.012457
2223.3570,0.012766
2225.2207,0.012673
2227.0844,0.012993
2228.9480,0.014282
2230.8117,0.014589
2232.6754,0.014008
2234.5390,0.014004
2236.4027,0.014484
2238.2664,0.015642
2240.1300,0.015985
2241.9937,0.015465
2243.8574,0.015421
2245.7210,0.015553
2247.5847,0.015325
2249.4484,0.015367
2251.3121,0.015744
2253.1757,0.016117
2255.0394,0.016494
2256.9031,0.016764
2258.7667,0.016866
2260.6304,0.016676
2262.4941,0.016954
2264.3577,0.017763
2266.2214,0.018251
2268.0851,0.018465
2269.9487,0.018086
2271.8124,0.018435
2273.6761,0.019437
2275.5397,0.019871
2277.4034,0.019970
2279.2671,0.020097
2281.1308,0.020516
2282.9944,0.020718
2284.8581,0.021100
2286.7218,0.021306
2288.5854,0.021138
2290.4491,0.021173
2292.3128,0.021356
2294.1764,0.021420
2296.0401,0.021221
2297.9038,0.021251
2299.7674,0.021593
2301.6311,0.021445
2303.4948,0.021208
2305.3585,0.021511
2307.2221,0.021828
2309.0858,0.021881
2310.9495,0.022159
2312.8131,0.022446
2314.6768,0.022311
2316.5405,0.022505
2318.4041,0.022690
2320.2678,0.022560
2322.1315,0.022844
2323.9951,0.023437
2325.8588,0.023123
2327.7225,0.022263
2329.5861,0.021822
2331.4498,0.021542
2333.3135,0.021446
2335.1772,0.021314
2337.0408,0.021413
2338.9045,0.021812
2340.7682,0.022394
2342.6318,0.022478
2344.4955,0.022248
2346.3592,0.021947
2348.2228,0.021543
2350.0865,0.021842
2351.9502,0.022279
2353.8138,0.022307
2355.6775,0.022144
2357.5412,0.021702
2359.4049,0.021673
2361.2685,0.022049
2363.1322,0.022549
2364.9959,0.022743
2366.8595,0.022950
2368.7232,0.023296
2370.5869,0.023156
2372.4505,0.023018
2374.3142,0.023779
2376.1779,0.024289
2378.0415,0.023872
2379.9052,0.023727
2381.7689,0.024197
2383.6325,0.024307
2385.4962,0.023984
2387.3599,0.023891
2389.2236,0.023938
2391.0872,0.024412
2392.9509,0.024966
2394.8146,0.025317
2396.6782,0.025355
2398.5419,0.025193
2400.4056,0.025340
2402.2692,0.025656
2404.1329,0.025877
2405.9966,0.026154
2407.8602,0.026489
2409.7239,0.026665
2411.5876,0.026593
2413.4512,0.026856
2415.3149,0.027217
2417.1786,0.027276
2419.0423,0.027227
2420.9059,0.027404
2422.7696,0.027548
2424.6333,0.027758
2426.4969,0.028233
2428.3606,0.028472
2430.2243,0.028354
2432.0879,0.028238
2433.9516,0.028393
2435.8153,0.028823
2437.6789,0.029549
2439.5426,0.029718
2441.4063,0.029643
2443.2700,0.029669
2445.1336,0.029624
2446.9973,0.029778
2448.8610,0.029846
2450.7246,0.030116
2452.5883,0.030161
2454.4520,0.029755
2456.3156,0.029975
2458.1793,0.030605
2460.0430,0.030505
2461.9066,0.030345
2463.7703,0.030404
2465.6340,0.030301
2467.4976,0.030178
2469.3613,0.030453
2471.2250,0.030913
2473.0887,0.031185
2474.9523,0.031155
2476.8160,0.031188
2478.6797,0.031312
2480.5433,0.031502
2482.4070,0.031943
2484.2707,0.032653
2486.1343,0.032936
2487.9980,0.033010
2489.8617,0.033091
2491.7253,0.033320
2493.5890,0.033458
2495.4527,0.033663
2497.3164,0.034189
2499.1800,0.034409
2501.0437,0.034731
2502.9074,0.035384
2504.7710,0.035267
2506.6347,0.035009
2508.4984,0.035504
2510.3620,0.036105
2512.2257,0.036515
2514.0894,0.037019
2515.9530,0.037476
2517.8167,0.037811
2519.6804,0.037862
2521.5440,0.038401
2523.4077,0.038926
2525.2714,0.039018
2527.1351,0.039319
