Wavenumber,Intensity
650.4205,0.214516
652.2841,0.208217
654.1478,0.203388
656.0115,0.201635
657.8751,0.199496
659.7388,0.192326
661.6025,0.189101
663.4661,0.188390
665.3298,0.186253
667.1935,0.185275
669.0571,0.188044
670.9208,0.187050
672.7845,0.185826
674.6481,0.184911
676.5118,0.186005
678.3755,0.186521
680.2392,0.187351
682.1028,0.188850
683.9665,0.188969
685.8302,0.187799
687.6938,0.186700
689.5575,0.185072
691.4212,0.185378
693.2848,0.186128
695.1485,0.186227
697.0122,0.185551
698.8758,0.184314
700.7395,0.183140
702.6032,0.182173
704.4669,0.178441
706.3305,0.173110
708.1942,0.166150
710.0579,0.157351
711.9215,0.148446
713.7852,0.140478
715.6489,0.132757
717.5125,0.125989
719.3762,0.119500
721.2399,0.114009
723.1035,0.109529
724.9672,0.104775
726.8309,0.100269
728.6945,0.096421
730.5582,0.092513
732.4219,0.089240
734.2856,0.086266
736.1492,0.083401
738.0129,0.081816
739.8766,0.082378
741.7402,0.084256
743.6039,0.086814
745.4676,0.088643
747.3312,0.089023
749.1949,0.088583
751.0586,0.087670
752.9222,0.086898
754.7859,0.086801
756.6496,0.086482
758.5132,0.085439
760.3769,0.084593
762.2406,0.084348
764.1043,0.084634
765.9679,0.084979
767.8316,0.085113
769.6953,0.085321
771.5589,0.086113
773.4226,0.086808
775.2863,0.087267
777.1499,0.088316
779.0136,0.089768
780.8773,0.091418
782.7409,0.093340
784.6046,0.095598
786.4683,0.097591
788.3320,0.099431
790.1956,0.101868
792.0593,0.104611
793.9230,0.107000
795.7866,0.109299
797.6503,0.111365
799.5140,0.113186
801.3776,0.114793
803.2413,0.115902
805.1050,0.116183
806.9686,0.115548
808.8323,0.114428
810.6960,0.112422
812.5596,0.109616
814.4233,0.106739
816.2870,0.104016
818.1507,0.101755
820.0143,0.100100
821.8780,0.099151
823.7417,0.098766
825.6053,0.099275
827.4690,0.101163
829.3327,0.101961
831.1963,0.095413
833.0600,0.082073
834.9237,0.070359
836.7873,0.064245
838.6510,0.061254
840.5147,0.059442
842.3784,0.058633
844.2420,0.058243
846.1057,0.057862
847.9694,0.057571
849.8330,0.057070
851.6967,0.055939
853.5604,0.054677
855.4240,0.053912
857.2877,0.053676
859.1514,0.053349
861.0150,0.053023
862.8787,0.052997
864.7424,0.052948
866.6060,0.052915
868.4697,0.053205
870.3334,0.053736
872.1971,0.054081
874.0607,0.054245
875.9244,0.054610
877.7881,0.054975
879.6517,0.055165
881.5154,0.055436
883.3791,0.055910
885.2427,0.056410
887.1064,0.056881
888.9701,0.057350
890.8337,0.058030
892.6974,0.058742
894.5611,0.059520
896.4247,0.060571
898.2884,0.061832
900.1521,0.063379
902.0158,0.065398
903.8794,0.068118
905.7431,0.071734
907.6068,0.076098
909.4704,0.081037
911.3341,0.087036
913.1978,0.093749
915.0614,0.096583
916.9251,0.088849
918.7888,0.074011
920.6524,0.062670
922.5161,0.057954
924.3798,0.056830
926.2435,0.056888
928.1071,0.057318
929.9708,0.057740
931.8345,0.058175
933.6981,0.058893
935.5618,0.059658
937.4255,0.060480
939.2891,0.061315
941.1528,0.061839
943.0165,0.062488
944.8801,0.063492
946.7438,0.064365
948.6075,0.065181
950.4711,0.066201
952.3348,0.067192
954.1985,0.068123
956.0622,0.069001
957.9258,0.070066
959.7895,0.071375
961.6532,0.072780
963.5168,0.074387
965.3805,0.076275
967.2442,0.078458
969.1078,0.080949
970.9715,0.083596
972.8352,0.086809
974.6988,0.091946
976.5625,0.100919
978.4262,0.116241
980.2899,0.137094
982.1535,0.144398
984.0172,0.119138
985.8809,0.086453
987.7445,0.071664
989.6082,0.069149
991.4719,0.069308
993.3355,0.069740
995.1992,0.070160
997.0629,0.070546
998.9265,0.070783
1000.7902,0.070985
1002.6539,0.071239
1004.5175,0.071473
1006.3812,0.071767
1008.2449,0.072072
1010.1086,0.072400
1011.9722,0.072884
1013.8359,0.073610
1015.6996,0.074363
1017.5632,0.075075
1019.4269,0.076051
1021.2906,0.077223
1023.1542,0.078349
1025.0179,0.079551
1026.8816,0.081028
1028.7452,0.082703
1030.6089,0.084163
1032.4726,0.084804
1034.3362,0.084695
1036.1999,0.085162
1038.0636,0.087040
1039.9273,0.090254
1041.7909,0.094412
1043.6546,0.099020
1045.5183,0.103234
1047.3819,0.105676
1049.2456,0.104735
1051.1093,0.099421
1052.9729,0.091043
1054.8366,0.083236
1056.7003,0.078418
1058.5639,0.076456
1060.4276,0.076332
1062.2913,0.076836
1064.1550,0.077550
1066.0186,0.078715
1067.8823,0.080176
1069.7460,0.081782
1071.6096,0.083497
1073.4733,0.085359
1075.3370,0.087329
1077.2006,0.089320
1079.0643,0.091477
1080.9280,0.093958
1082.7916,0.096667
1084.6553,0.099615
1086.5190,0.102941
1088.3826,0.106562
1090.2463,0.110695
1092.1100,0.115415
1093.9737,0.120502
1095.8373,0.126193
1097.7010,0.132494
1099.5647,0.139171
1101.4283,0.145888
1103.2920,0.151938
1105.1557,0.156082
1107.0193,0.156800
1108.8830,0.152667
1110.7467,0.143572
1112.6103,0.131454
1114.4740,0.118884
1116.3377,0.107578
1118.2014,0.098464
1120.0650,0.091779
1121.9287,0.087236
1123.7924,0.084344
1125.6560,0.082333
1127.5197,0.080451
1129.3834,0.078480
1131.2470,0.076543
1133.1107,0.074776
1134.9744,0.073333
1136.8380,0.072281
1138.7017,0.071633
1140.5654,0.071422
1142.4290,0.071420
1144.2927,0.071496
1146.1564,0.071671
1148.0201,0.071945
1149.8837,0.072346
1151.7474,0.072826
1153.6111,0.073437
1155.4747,0.074251
1157.3384,0.075285
1159.2021,0.076615
1161.0657,0.078281
1162.9294,0.080349
1164.7931,0.082932
1166.6567,0.086170
1168.5204,0.089922
1170.3841,0.093713
1172.2477,0.096356
1174.1114,0.096034
1175.9751,0.092270
1177.8388,0.086971
1179.7024,0.082531
1181.5661,0.079974
1183.4298,0.078868
1185.2934,0.078552
1187.1571,0.078596
1189.0208,0.078576
1190.8844,0.078402
1192.7481,0.078288
1194.6118,0.078295
1196.4754,0.078404
1198.3391,0.078580
1200.2028,0.078803
1202.0665,0.079049
1203.9301,0.079379
1205.7938,0.079786
1207.6575,0.080162
1209.5211,0.080574
1211.3848,0.081016
1213.2485,0.081453
1215.1121,0.081925
1216.9758,0.082339
1218.8395,0.082722
1220.7031,0.083111
1222.5668,0.083469
1224.4305,0.083831
1226.2941,0.084304
1228.1578,0.084767
1230.0215,0.085192
1231.8852,0.085615
1233.7488,0.086056
1235.6125,0.086552
1237.4762,0.087068
1239.3398,0.087612
1241.2035,0.088207
1243.0672,0.088817
1244.9308,0.089430
1246.7945,0.090043
1248.6582,0.090709
1250.5218,0.091430
1252.3855,0.092161
1254.2492,0.092908
1256.1129,0.093724
1257.9765,0.094636
1259.8402,0.095761
1261.7039,0.096947
1263.5675,0.097996
1265.4312,0.099021
1267.2949,0.099559
1269.1585,0.099424
1271.0222,0.099203
1272.8859,0.099119
1274.7495,0.099337
1276.6132,0.099915
1278.4769,0.100708
1280.3405,0.101857
1282.2042,0.103347
1284.0679,0.104978
1285.9316,0.106861
1287.7952,0.109337
1289.6589,0.112241
1291.5226,0.115464
1293.3862,0.119382
1295.2499,0.124036
1297.1136,0.129496
1298.9772,0.135953
1300.8409,0.143573
1302.7046,0.151332
1304.5682,0.156188
1306.4319,0.153861
1308.2956,0.140995
1310.1592,0.119629
1312.0229,0.098570
1313.8866,0.085330
1315.7503,0.080752
1317.6139,0.081041
1319.4776,0.083265
1321.3413,0.085867
1323.2049,0.088487
1325.0686,0.091217
1326.9323,0.093839
1328.7959,0.096306
1330.6596,0.098521
1332.5233,0.100228
1334.3869,0.101251
1336.2506,0.101961
1338.1143,0.103249
1339.9780,0.105305
1341.8416,0.106305
1343.7053,0.106229
1345.5690,0.106724
1347.4326,0.107677
1349.2963,0.109120
1351.1600,0.110827
1353.0236,0.112715
1354.8873,0.115200
1356.7510,0.117563
1358.6146,0.119251
1360.4783,0.121645
1362.3420,0.126408
1364.2056,0.131049
1366.0693,0.133039
1367.9330,0.136131
1369.7967,0.140136
1371.6603,0.143177
1373.5240,0.147719
1375.3877,0.153475
1377.2513,0.157011
1379.1150,0.161338
1380.9787,0.167233
1382.8423,0.173224
1384.7060,0.179447
1386.5697,0.187527
1388.4333,0.197100
1390.2970,0.201444
1392.1607,0.202003
1394.0244,0.200465
1395.8880,0.194468
1397.7517,0.185101
1399.6154,0.174692
1401.4790,0.164805
1403.3427,0.154790
1405.2064,0.140192
1407.0700,0.121879
1408.9337,0.104391
1410.7974,0.088653
1412.6610,0.077920
1414.5247,0.073244
1416.3884,0.073131
1418.2520,0.077893
1420.1157,0.087540
1421.9794,0.091599
1423.8431,0.089011
1425.7067,0.080621
1427.5704,0.071272
1429.4341,0.065450
1431.2977,0.063543
1433.1614,0.063790
1435.0251,0.065176
1436.8887,0.069570
1438.7524,0.073138
1440.6161,0.074060
1442.4797,0.076026
1444.3434,0.077853
1446.2071,0.079082
1448.0707,0.079895
1449.9344,0.078555
1451.7981,0.075040
1453.6618,0.071326
1455.5254,0.069178
1457.3891,0.072379
1459.2528,0.074976
1461.1164,0.073471
1462.9801,0.072752
1464.8438,0.073591
1466.7074,0.073298
1468.5711,0.070854
1470.4348,0.069015
1472.2984,0.069652
1474.1621,0.071704
1476.0258,0.071494
1477.8895,0.071296
1479.7531,0.070892
1481.6168,0.071320
1483.4805,0.071575
1485.3441,0.071225
1487.2078,0.071824
1489.0715,0.074192
1490.9351,0.076911
1492.7988,0.076542
1494.6625,0.075715
1496.5261,0.078090
1498.3898,0.081183
1500.2535,0.081747
1502.1171,0.080807
1503.9808,0.079606
1505.8445,0.081512
1507.7082,0.091399
1509.5718,0.091731
1511.4355,0.090233
1513.2992,0.090605
1515.1628,0.091331
1517.0265,0.093435
1518.8902,0.094709
1520.7538,0.095703
1522.6175,0.099866
1524.4812,0.100002
1526.3448,0.101044
1528.2085,0.102603
1530.0722,0.102508
1531.9359,0.103097
1533.7995,0.106497
1535.6632,0.107448
1537.5269,0.105835
1539.3905,0.108898
1541.2542,0.118033
1543.1179,0.119657
1544.9815,0.121254
1546.8452,0.122598
1548.7089,0.123454
1550.5725,0.126536
1552.4362,0.128604
1554.2999,0.129699
1556.1635,0.131526
1558.0272,0.135834
1559.8909,0.151512
1561.7546,0.149632
1563.6182,0.147271
1565.4819,0.149257
1567.3456,0.151778
1569.2092,0.155703
1571.0729,0.161100
1572.9366,0.161619
1574.8002,0.163870
1576.6639,0.171614
1578.5276,0.175876
1580.3912,0.176126
1582.2549,0.178444
1584.1186,0.180823
1585.9822,0.182626
1587.8459,0.183571
1589.7096,0.184084
1591.5733,0.183718
1593.4369,0.182869
1595.3006,0.181657
1597.1643,0.180029
1599.0279,0.177670
1600.8916,0.175211
1602.7553,0.173038
1604.6189,0.171042
1606.4826,0.169040
1608.3463,0.167469
1610.2099,0.165500
1612.0736,0.162291
1613.9373,0.157802
1615.8010,0.152241
1617.6646,0.145189
1619.5283,0.138547
1621.3920,0.132304
1623.2556,0.124711
1625.1193,0.116755
1626.9830,0.108735
1628.8466,0.099289
1630.7103,0.090407
1632.5740,0.082962
1634.4376,0.074755
1636.3013,0.066271
1638.1650,0.062664
1640.0286,0.061986
1641.8923,0.061510
1643.7560,0.061843
1645.6197,0.063205
1647.4833,0.067111
1649.3470,0.069244
1651.2107,0.069700
1653.0743,0.074319
1654.9380,0.081422
1656.8017,0.080491
1658.6653,0.080436
1660.5290,0.080450
1662.3927,0.080140
1664.2563,0.079352
1666.1200,0.077632
1667.9837,0.075593
1669.8474,0.074475
1671.7110,0.074079
1673.5747,0.074115
1675.4384,0.076350
1677.3020,0.079988
1679.1657,0.081849
1681.0294,0.084824
1682.8930,0.087439
1684.7567,0.093647
1686.6204,0.096407
1688.4840,0.094371
1690.3477,0.092451
1692.2114,0.089760
1694.0750,0.085942
1695.9387,0.081890
1697.8024,0.077961
1699.6661,0.073925
1701.5297,0.067711
1703.3934,0.061778
1705.2571,0.054007
1707.1207,0.045318
1708.9844,0.039527
1710.8481,0.035141
1712.7117,0.031351
1714.5754,0.028524
1716.4391,0.026222
1718.3027,0.025927
1720.1664,0.025520
1722.0301,0.024257
1723.8937,0.022647
1725.7574,0.020892
1727.6211,0.018917
1729.4848,0.017221
1731.3484,0.015755
1733.2121,0.014341
1735.0758,0.014214
1736.9394,0.013995
1738.8031,0.012931
1740.6668,0.012709
1742.5304,0.012519
1744.3941,0.012319
1746.2578,0.011754
1748.1214,0.011180
1749.9851,0.010814
1751.8488,0.011049
1753.7125,0.011050
1755.5761,0.010686
1757.4398,0.010533
1759.3035,0.010506
1761.1671,0.010227
1763.0308,0.010503
1764.8945,0.010544
1766.7581,0.010276
1768.6218,0.010247
1770.4855,0.010071
1772.3491,0.009925
1774.2128,0.010458
1776.0765,0.010249
1777.9401,0.010309
1779.8038,0.010168
1781.6675,0.010417
1783.5312,0.010454
1785.3948,0.010795
1787.2585,0.010830
1789.1222,0.010461
1790.9858,0.010034
1792.8495,0.010525
1794.7132,0.010810
1796.5768,0.010728
1798.4405,0.010689
1800.3042,0.010893
1802.1678,0.011185
1804.0315,0.011404
1805.8952,0.011307
1807.7589,0.011300
1809.6225,0.011274
1811.4862,0.011410
1813.3499,0.011386
1815.2135,0.011251
1817.0772,0.010942
1818.9409,0.011221
1820.8045,0.011514
1822.6682,0.011532
1824.5319,0.011446
1826.3955,0.011652
1828.2592,0.011092
1830.1229,0.011172
1831.9865,0.011443
1833.8502,0.011368
1835.7139,0.011289
1837.5776,0.011399
1839.4412,0.011368
1841.3049,0.011074
1843.1686,0.010739
1845.0322,0.011527
1846.8959,0.011780
1848.7596,0.011644
1850.6232,0.011563
1852.4869,0.011606
1854.3506,0.011449
1856.2142,0.011432
1858.0779,0.011439
1859.9416,0.011637
1861.8052,0.011898
1863.6689,0.011980
1865.5326,0.011641
1867.3963,0.011440
1869.2599,0.011558
1871.1236,0.011950
1872.9873,0.011992
1874.8509,0.012077
1876.7146,0.012017
1878.5783,0.011845
1880.4419,0.011766
1882.3056,0.012084
1884.1693,0.012356
1886.0329,0.012812
1887.8966,0.012628
1889.7603,0.012522
1891.6240,0.012867
1893.4876,0.012916
1895.3513,0.012953
1897.2150,0.012994
1899.0786,0.012554
1900.9423,0.012715
1902.8060,0.013230
1904.6696,0.013708
1906.5333,0.013619
1908.3970,0.013218
1910.2606,0.013255
1912.1243,0.013547
1913.9880,0.013593
1915.8516,0.013524
1917.7153,0.013092
1919.5790,0.012947
1921.4427,0.012883
1923.3063,0.012978
1925.1700,0.013139
1927.0337,0.013365
1928.8973,0.013037
1930.7610,0.012610
1932.6247,0.011993
1934.4883,0.011989
1936.3520,0.012242
1938.2157,0.012009
1940.0793,0.011420
1941.9430,0.011208
1943.8067,0.010925
1945.6704,0.011134
1947.5340,0.010964
1949.3977,0.009764
1951.2614,0.009421
1953.1250,0.009633
1954.9887,0.008967
1956.8524,0.008980
1958.7160,0.008582
1960.5797,0.008262
1962.4434,0.008347
1964.3070,0.007226
1966.1707,0.004670
1968.0344,0.004917
1969.8980,0.004554
1971.7617,0.003838
1973.6254,0.004758
1975.4891,0.005871
1977.3527,0.005836
1979.2164,0.007195
1981.0801,0.006962
1982.9437,0.006453
1984.8074,0.007392
1986.6711,0.007820
1988.5347,0.008320
1990.3984,0.008875
1992.2621,0.008307
1994.1257,0.009072
1995.9894,0.009335
1997.8531,0.008660
1999.7167,0.007626
2001.5804,0.007988
2003.4441,0.007629
2005.3078,0.006085
2007.1714,0.005021
2009.0351,0.006463
2010.8988,0.007008
2012.7624,0.006617
2014.6261,0.006536
2016.4898,0.006688
2018.3534,0.006810
2020.2171,0.007290
2022.0808,0.006633
2023.9444,0.006214
2025.8081,0.005602
2027.6718,0.005368
2029.5355,0.005039
2031.3991,0.006669
2033.2628,0.007133
2035.1265,0.006948
2036.9901,0.007161
2038.8538,0.007258
2040.7175,0.007013
2042.5811,0.008479
2044.4448,0.009103
2046.3085,0.009512
2048.1721,0.010331
2050.0358,0.011163
2051.8995,0.010822
2053.7631,0.010707
2055.6268,0.011319
2057.4905,0.011765
2059.3542,0.011958
2061.2178,0.012151
2063.0815,0.012089
2064.9452,0.012736
2066.8088,0.012414
2068.6725,0.011971
2070.5362,0.012522
2072.3998,0.012918
2074.2635,0.013091
2076.1272,0.013543
2077.9908,0.013516
2079.8545,0.013507
2081.7182,0.013649
2083.5819,0.014324
2085.4455,0.014540
2087.3092,0.014134
2089.1729,0.013280
2091.0365,0.012801
2092.9002,0.012577
2094.7639,0.012782
2096.6275,0.013336
2098.4912,0.014146
2100.3549,0.014208
2102.2185,0.014236
2104.0822,0.013889
2105.9459,0.013630
2107.8095,0.014101
2109.6732,0.014833
2111.5369,0.015014
2113.4006,0.015081
2115.2642,0.014692
2117.1279,0.014773
2118.9916,0.015070
2120.8552,0.015262
2122.7189,0.014125
2124.5826,0.013643
2126.4462,0.013937
2128.3099,0.014339
2130.1736,0.013968
2132.0372,0.012817
2133.9009,0.012907
2135.7646,0.014136
2137.6282,0.013145
2139.4919,0.011551
2141.3556,0.011639
2143.2193,0.012744
2145.0829,0.012614
2146.9466,0.010936
2148.8103,0.009391
2150.6739,0.009757
2152.5376,0.009273
2154.4013,0.006629
2156.2649,0.005476
2158.1286,0.006251
2159.9923,0.007329
2161.8559,0.007112
2163.7196,0.005405
2165.5833,0.006712
2167.4470,0.008384
2169.3106,0.009068
2171.1743,0.009259
2173.0380,0.009085
2174.9016,0.008786
2176.7653,0.010649
2178.6290,0.010841
2180.4926,0.010316
2182.3563,0.011108
2184.2200,0.011546
2186.0836,0.011737
2187.9473,0.011739
2189.8110,0.011206
2191.6746,0.012185
2193.5383,0.011907
2195.4020,0.012000
2197.2657,0.013148
2199.1293,0.013371
2200.9930,0.012817
2202.8567,0.012561
2204.7203,0.012393
2206.5840,0.013765
2208.4477,0.014133
2210.3113,0.014206
2212.1750,0.013598
2214.0387,0.012702
2215.9023,0.013938
2217.7660,0.015884
2219.6297,0.014954
2221.4934,0.014060
2223.3570,0.014180
2225.2207,0.014483
2227.0844,0.014822
2228.9480,0.015742
2230.8117,0.016307
2232.6754,0.016123
2234.5390,0.016633
2236.4027,0.017054
2238.2664,0.016668
2240.1300,0.016723
2241.9937,0.017405
2243.8574,0.018145
2245.7210,0.017621
2247.5847,0.017295
2249.4484,0.017330
2251.3121,0.018131
2253.1757,0.018473
2255.0394,0.018019
2256.9031,0.017916
2258.7667,0.018578
2260.6304,0.018955
2262.4941,0.019015
2264.3577,0.018789
2266.2214,0.019206
2268.0851,0.019750
2269.9487,0.020216
2271.8124,0.020558
2273.6761,0.020674
2275.5397,0.020670
2277.4034,0.021429
2279.2671,0.021938
2281.1308,0.021988
2282.9944,0.022076
2284.8581,0.022092
2286.7218,0.022211
2288.5854,0.022690
2290.4491,0.022620
2292.3128,0.022403
2294.1764,0.022215
2296.0401,0.022161
2297.9038,0.022286
2299.7674,0.022448
2301.6311,0.022484
2303.4948,0.022871
2305.3585,0.023098
2307.2221,0.023139
2309.0858,0.023018
2310.9495,0.022764
2312.8131,0.022850
2314.6768,0.023225
2316.5405,0.023186
2318.4041,0.022781
2320.2678,0.022690
2322.1315,0.023271
2323.9951,0.023464
2325.8588,0.022902
2327.7225,0.022363
2329.5861,0.022015
2331.4498,0.021932
2333.3135,0.022312
2335.1772,0.022327
2337.0408,0.021971
2338.9045,0.021940
2340.7682,0.022386
2342.6318,0.022658
2344.4955,0.022507
2346.3592,0.022409
2348.2228,0.022132
2350.0865,0.021535
2351.9502,0.021371
2353.8138,0.021809
2355.6775,0.022134
2357.5412,0.022141
2359.4049,0.022151
2361.2685,0.022028
2363.1322,0.021921
2364.9959,0.022140
2366.8595,0.022546
2368.7232,0.022265
2370.5869,0.022533
2372.4505,0.023108
2374.3142,0.023281
2376.1779,0.023242
2378.0415,0.023245
2379.9052,0.023513
2381.7689,0.023463
2383.6325,0.023073
2385.4962,0.023151
2387.3599,0.023316
2389.2236,0.023378
2391.0872,0.023217
2392.9509,0.023435
2394.8146,0.023422
2396.6782,0.023406
2398.5419,0.023460
2400.4056,0.023435
2402.2692,0.023661
2404.1329,0.023825
2405.9966,0.023727
2407.8602,0.023558
2409.7239,0.023735
2411.5876,0.024226
2413.4512,0.024508
2415.3149,0.024344
2417.1786,0.023918
2419.0423,0.023841
2420.9059,0.024106
2422.7696,0.024614
2424.6333,0.024928
2426.4969,0.024789
2428.3606,0.024684
2430.2243,0.024651
2432.0879,0.024963
2433.9516,0.025119
2435.8153,0.024909
2437.6789,0.024708
2439.5426,0.024648
2441.4063,0.025100
2443.2700,0.025445
2445.1336,0.025288
2446.9973,0.024806
2448.8610,0.024477
2450.7246,0.024779
2452.5883,0.024984
2454.4520,0.024486
2456.3156,0.024480
2458.1793,0.024462
2460.0430,0.024238
2461.9066,0.024096
2463.7703,0.024163
2465.6340,0.024280
2467.4976,0.024150
2469.3613,0.024307
2471.2250,0.024509
2473.0887,0.024371
2474.9523,0.024220
2476.8160,0.024217
2478.6797,0.024408
2480.5433,0.024539
2482.4070,0.024571
2484.2707,0.024568
2486.1343,0.025107
2487.9980,0.025444
2489.8617,0.025397
2491.7253,0.025385
2493.5890,0.025455
2495.4527,0.025400
2497.3164,0.025365
2499.1800,0.025260
2501.0437,0.025469
2502.9074,0.025621
2504.7710,0.025766
2506.6347,0.026212
2508.4984,0.026002
2510.3620,0.025496
2512.2257,0.025491
2514.0894,0.025566
2515.9530,0.025489
2517.8167,0.025805
2519.6804,0.026252
2521.5440,0.026331
2523.4077,0.026283
2525.2714,0.026439
2527.1351,0.026522
