Wavenumber,Intensity
650.4205,0.248574
652.2841,0.242292
654.1478,0.238107
656.0115,0.231134
657.8751,0.223335
659.7388,0.217622
661.6025,0.215526
663.4661,0.214571
665.3298,0.212474
667.1935,0.210246
669.0571,0.211988
670.9208,0.211636
672.7845,0.212011
674.6481,0.213632
676.5118,0.216521
678.3755,0.216505
680.2392,0.215173
682.1028,0.215098
683.9665,0.216433
685.8302,0.215405
687.6938,0.212570
689.5575,0.211765
691.4212,0.211627
693.2848,0.210746
695.1485,0.211467
697.0122,0.212165
698.8758,0.209645
700.7395,0.207192
702.6032,0.205562
704.4669,0.201806
706.3305,0.196014
708.1942,0.187200
710.0579,0.177511
711.9215,0.167116
713.7852,0.156971
715.6489,0.148450
717.5125,0.141778
719.3762,0.134821
721.2399,0.128366
723.1035,0.123136
724.9672,0.117811
726.8309,0.112174
728.6945,0.107853
730.5582,0.103821
732.4219,0.099558
734.2856,0.095785
736.1492,0.092643
738.0129,0.091296
739.8766,0.092249
741.7402,0.094663
743.6039,0.097366
745.4676,0.098826
747.3312,0.099080
749.1949,0.098759
751.0586,0.098160
752.9222,0.097514
754.7859,0.097052
756.6496,0.096726
758.5132,0.096424
760.3769,0.095862
762.2406,0.095837
764.1043,0.095764
765.9679,0.095658
767.8316,0.095860
769.6953,0.096495
771.5589,0.097567
773.4226,0.098643
775.2863,0.099560
777.1499,0.100702
779.0136,0.102339
780.8773,0.104057
782.7409,0.105980
784.6046,0.108546
786.4683,0.111046
788.3320,0.113436
790.1956,0.116204
792.0593,0.118913
793.9230,0.121550
795.7866,0.124659
797.6503,0.127402
799.5140,0.129707
801.3776,0.131686
803.2413,0.133305
805.1050,0.134393
806.9686,0.134490
808.8323,0.133098
810.6960,0.130786
812.5596,0.127759
814.4233,0.124502
816.2870,0.121644
818.1507,0.119290
820.0143,0.117422
821.8780,0.116288
823.7417,0.116253
825.6053,0.117402
827.4690,0.119470
829.3327,0.120301
831.1963,0.113285
833.0600,0.098244
834.9237,0.084709
836.7873,0.077149
838.6510,0.073287
840.5147,0.071059
842.3784,0.069597
844.2420,0.068729
846.1057,0.068472
847.9694,0.068483
849.8330,0.067677
851.6967,0.065732
853.5604,0.063988
855.4240,0.062873
857.2877,0.062433
859.1514,0.062468
861.0150,0.062311
862.8787,0.062255
864.7424,0.062456
866.6060,0.062542
868.4697,0.062617
870.3334,0.062874
872.1971,0.063229
874.0607,0.063607
875.9244,0.064017
877.7881,0.064325
879.6517,0.064829
881.5154,0.065358
883.3791,0.065687
885.2427,0.066113
887.1064,0.066659
888.9701,0.067257
890.8337,0.068003
892.6974,0.068961
894.5611,0.069863
896.4247,0.070940
898.2884,0.072377
900.1521,0.073967
902.0158,0.076107
903.8794,0.079067
905.7431,0.082892
907.6068,0.087703
909.4704,0.093289
911.3341,0.100222
913.1978,0.108516
915.0614,0.112580
916.9251,0.104102
918.7888,0.087322
920.6524,0.074401
922.5161,0.068813
924.3798,0.067340
926.2435,0.067288
928.1071,0.067613
929.9708,0.068173
931.8345,0.068902
933.6981,0.069726
935.5618,0.070549
937.4255,0.071350
939.2891,0.072277
941.1528,0.073148
943.0165,0.073986
944.8801,0.074880
946.7438,0.075809
948.6075,0.076883
950.4711,0.078130
952.3348,0.079320
954.1985,0.080342
956.0622,0.081516
957.9258,0.082966
959.7895,0.084455
961.6532,0.085936
963.5168,0.087674
965.3805,0.089787
967.2442,0.092266
969.1078,0.095087
970.9715,0.098103
972.8352,0.101676
974.6988,0.107306
976.5625,0.117088
978.4262,0.134074
980.2899,0.158374
982.1535,0.168716
984.0172,0.141655
985.8809,0.104730
987.7445,0.087327
989.6082,0.083871
991.4719,0.083670
993.3355,0.083950
995.1992,0.084225
997.0629,0.084416
998.9265,0.084611
1000.7902,0.084697
1002.6539,0.084759
1004.5175,0.084977
1006.3812,0.085177
1008.2449,0.085386
1010.1086,0.085720
1011.9722,0.086126
1013.8359,0.086690
1015.6996,0.087460
1017.5632,0.088244
1019.4269,0.089074
1021.2906,0.090233
1023.1542,0.091645
1025.0179,0.093293
1026.8816,0.095235
1028.7452,0.097241
1030.6089,0.098962
1032.4726,0.099429
1034.3362,0.098533
1036.1999,0.098257
1038.0636,0.100137
1039.9273,0.103922
1041.7909,0.108792
1043.6546,0.114197
1045.5183,0.119205
1047.3819,0.122077
1049.2456,0.120961
1051.1093,0.114875
1052.9729,0.105404
1054.8366,0.096536
1056.7003,0.091009
1058.5639,0.088683
1060.4276,0.088319
1062.2913,0.088764
1064.1550,0.089583
1066.0186,0.090958
1067.8823,0.092688
1069.7460,0.094428
1071.6096,0.096353
1073.4733,0.098510
1075.3370,0.100626
1077.2006,0.102816
1079.0643,0.105288
1080.9280,0.107991
1082.7916,0.110900
1084.6553,0.114166
1086.5190,0.117891
1088.3826,0.121983
1090.2463,0.126492
1092.1100,0.131520
1093.9737,0.137238
1095.8373,0.143788
1097.7010,0.150872
1099.5647,0.158400
1101.4283,0.166352
1103.2920,0.173787
1105.1557,0.179137
1107.0193,0.180655
1108.8830,0.176449
1110.7467,0.166390
1112.6103,0.152794
1114.4740,0.138438
1116.3377,0.125361
1118.2014,0.114667
1120.0650,0.106766
1121.9287,0.101524
1123.7924,0.098185
1125.6560,0.095721
1127.5197,0.093401
1129.3834,0.091044
1131.2470,0.088882
1133.1107,0.086968
1134.9744,0.085415
1136.8380,0.084365
1138.7017,0.083714
1140.5654,0.083459
1142.4290,0.083528
1144.2927,0.083707
1146.1564,0.083911
1148.0201,0.084195
1149.8837,0.084576
1151.7474,0.085085
1153.6111,0.085818
1155.4747,0.086685
1157.3384,0.087743
1159.2021,0.089191
1161.0657,0.090961
1162.9294,0.093087
1164.7931,0.095858
1166.6567,0.099481
1168.5204,0.103836
1170.3841,0.108345
1172.2477,0.111676
1174.1114,0.111800
1175.9751,0.107846
1177.8388,0.101864
1179.7024,0.096758
1181.5661,0.093706
1183.4298,0.092355
1185.2934,0.091907
1187.1571,0.091896
1189.0208,0.091933
1190.8844,0.091795
1192.7481,0.091704
1194.6118,0.091672
1196.4754,0.091715
1198.3391,0.091992
1200.2028,0.092348
1202.0665,0.092658
1203.9301,0.093029
1205.7938,0.093401
1207.6575,0.093768
1209.5211,0.094248
1211.3848,0.094807
1213.2485,0.095322
1215.1121,0.095774
1216.9758,0.096263
1218.8395,0.096751
1220.7031,0.097165
1222.5668,0.097533
1224.4305,0.098000
1226.2941,0.098584
1228.1578,0.099119
1230.0215,0.099668
1231.8852,0.100207
1233.7488,0.100718
1235.6125,0.101240
1237.4762,0.101815
1239.3398,0.102496
1241.2035,0.103154
1243.0672,0.103823
1244.9308,0.104559
1246.7945,0.105324
1248.6582,0.106102
1250.5218,0.106838
1252.3855,0.107617
1254.2492,0.108488
1256.1129,0.109407
1257.9765,0.110476
1259.8402,0.111732
1261.7039,0.113028
1263.5675,0.114239
1265.4312,0.115328
1267.2949,0.115988
1269.1585,0.116033
1271.0222,0.115809
1272.8859,0.115683
1274.7495,0.115842
1276.6132,0.116377
1278.4769,0.117287
1280.3405,0.118582
1282.2042,0.120158
1284.0679,0.121940
1285.9316,0.124067
1287.7952,0.126704
1289.6589,0.129782
1291.5226,0.133267
1293.3862,0.137409
1295.2499,0.142362
1297.1136,0.148285
1298.9772,0.155359
1300.8409,0.163996
1302.7046,0.173281
1304.5682,0.180001
1306.4319,0.179395
1308.2956,0.166470
1310.1592,0.142434
1312.0229,0.117716
1313.8866,0.101530
1315.7503,0.095273
1317.6139,0.094905
1319.4776,0.096999
1321.3413,0.099603
1323.2049,0.102280
1325.0686,0.105228
1326.9323,0.108235
1328.7959,0.111080
1330.6596,0.113633
1332.5233,0.115690
1334.3869,0.116990
1336.2506,0.117895
1338.1143,0.119523
1339.9780,0.121814
1341.8416,0.122705
1343.7053,0.122784
1345.5690,0.123495
1347.4326,0.124476
1349.2963,0.125773
1351.1600,0.127446
1353.0236,0.129547
1354.8873,0.132130
1356.7510,0.134625
1358.6146,0.136765
1360.4783,0.139819
1362.3420,0.145028
1364.2056,0.149749
1366.0693,0.152290
1367.9330,0.156054
1369.7967,0.160414
1371.6603,0.163897
1373.5240,0.169188
1375.3877,0.175505
1377.2513,0.179492
1379.1150,0.184426
1380.9787,0.190984
1382.8423,0.197816
1384.7060,0.205255
1386.5697,0.214872
1388.4333,0.225600
1390.2970,0.231313
1392.1607,0.233684
1394.0244,0.233404
1395.8880,0.226298
1397.7517,0.214971
1399.6154,0.202197
1401.4790,0.190320
1403.3427,0.179926
1405.2064,0.164227
1407.0700,0.143371
1408.9337,0.123276
1410.7974,0.104796
1412.6610,0.091560
1414.5247,0.085348
1416.3884,0.084748
1418.2520,0.089938
1420.1157,0.099623
1421.9794,0.104411
1423.8431,0.102427
1425.7067,0.092858
1427.5704,0.082331
1429.4341,0.075954
1431.2977,0.073485
1433.1614,0.073413
1435.0251,0.075257
1436.8887,0.079823
1438.7524,0.082998
1440.6161,0.084436
1442.4797,0.086991
1444.3434,0.089251
1446.2071,0.091007
1448.0707,0.092142
1449.9344,0.090494
1451.7981,0.086674
1453.6618,0.082444
1455.5254,0.080348
1457.3891,0.082795
1459.2528,0.084306
1461.1164,0.083143
1462.9801,0.083011
1464.8438,0.083868
1466.7074,0.083010
1468.5711,0.080598
1470.4348,0.079361
1472.2984,0.080295
1474.1621,0.081655
1476.0258,0.081220
1477.8895,0.080893
1479.7531,0.080633
1481.6168,0.081012
1483.4805,0.081127
1485.3441,0.081040
1487.2078,0.082050
1489.0715,0.084848
1490.9351,0.086981
1492.7988,0.086250
1494.6625,0.086038
1496.5261,0.088736
1498.3898,0.091403
1500.2535,0.091871
1502.1171,0.091100
1503.9808,0.090543
1505.8445,0.093425
1507.7082,0.102061
1509.5718,0.101746
1511.4355,0.100825
1513.2992,0.101522
1515.1628,0.102847
1517.0265,0.105171
1518.8902,0.106667
1520.7538,0.108542
1522.6175,0.112249
1524.4812,0.112393
1526.3448,0.113787
1528.2085,0.115296
1530.0722,0.115532
1531.9359,0.116903
1533.7995,0.120414
1535.6632,0.120801
1537.5269,0.120180
1539.3905,0.124588
1541.2542,0.132825
1543.1179,0.134167
1544.9815,0.135938
1546.8452,0.137425
1548.7089,0.139212
1550.5725,0.142500
1552.4362,0.144820
1554.2999,0.146512
1556.1635,0.149205
1558.0272,0.155280
1559.8909,0.169560
1561.7546,0.166976
1563.6182,0.165837
1565.4819,0.168562
1567.3456,0.171966
1569.2092,0.176930
1571.0729,0.182301
1572.9366,0.183567
1574.8002,0.187551
1576.6639,0.196019
1578.5276,0.200260
1580.3912,0.201602
1582.2549,0.205031
1584.1186,0.208235
1585.9822,0.210842
1587.8459,0.212490
1589.7096,0.213443
1591.5733,0.213508
1593.4369,0.213301
1595.3006,0.212249
1597.1643,0.210180
1599.0279,0.207475
1600.8916,0.205077
1602.7553,0.202748
1604.6189,0.200395
1606.4826,0.198122
1608.3463,0.196021
1610.2099,0.193519
1612.0736,0.189917
1613.9373,0.185352
1615.8010,0.179897
1617.6646,0.170618
1619.5283,0.161445
1621.3920,0.154710
1623.2556,0.146285
1625.1193,0.136311
1626.9830,0.127383
1628.8466,0.116737
1630.7103,0.105964
1632.5740,0.097426
1634.4376,0.089322
1636.3013,0.079877
1638.1650,0.074189
1640.0286,0.072896
1641.8923,0.071866
1643.7560,0.072023
1645.6197,0.073870
1647.4833,0.077655
1649.3470,0.079574
1651.2107,0.081445
1653.0743,0.086893
1654.9380,0.092096
1656.8017,0.091657
1658.6653,0.092208
1660.5290,0.092413
1662.3927,0.092054
1664.2563,0.090454
1666.1200,0.088530
1667.9837,0.086653
1669.8474,0.084759
1671.7110,0.083629
1673.5747,0.084376
1675.4384,0.086693
1677.3020,0.089526
1679.1657,0.092085
1681.0294,0.096114
1682.8930,0.100556
1684.7567,0.106751
1686.6204,0.108442
1688.4840,0.107647
1690.3477,0.106360
1692.2114,0.103717
1694.0750,0.100530
1695.9387,0.096693
1697.8024,0.091674
1699.6661,0.088003
1701.5297,0.079254
1703.3934,0.072271
1705.2571,0.064263
1707.1207,0.053471
1708.9844,0.046121
1710.8481,0.041102
1712.7117,0.036845
1714.5754,0.033987
1716.4391,0.031559
1718.3027,0.030177
1720.1664,0.028984
1722.0301,0.028148
1723.8937,0.026399
1725.7574,0.024336
1727.6211,0.022323
1729.4848,0.020626
1731.3484,0.019047
1733.2121,0.018217
1735.0758,0.016638
1736.9394,0.015798
1738.8031,0.015550
1740.6668,0.015202
1742.5304,0.014732
1744.3941,0.014489
1746.2578,0.013983
1748.1214,0.013645
1749.9851,0.013041
1751.8488,0.012764
1753.7125,0.012534
1755.5761,0.012577
1757.4398,0.012407
1759.3035,0.012408
1761.1671,0.012286
1763.0308,0.012120
1764.8945,0.012059
1766.7581,0.012323
1768.6218,0.012249
1770.4855,0.012063
1772.3491,0.011881
1774.2128,0.011886
1776.0765,0.011664
1777.9401,0.011794
1779.8038,0.012017
1781.6675,0.012183
1783.5312,0.012146
1785.3948,0.012454
1787.2585,0.012346
1789.1222,0.012336
1790.9858,0.012442
1792.8495,0.012641
1794.7132,0.012457
1796.5768,0.012523
1798.4405,0.012518
1800.3042,0.012727
1802.1678,0.012796
1804.0315,0.012838
1805.8952,0.012925
1807.7589,0.013292
1809.6225,0.013418
1811.4862,0.013456
1813.3499,0.013174
1815.2135,0.013239
1817.0772,0.013274
1818.9409,0.013427
1820.8045,0.013455
1822.6682,0.013543
1824.5319,0.013534
1826.3955,0.013533
1828.2592,0.013400
1830.1229,0.013412
1831.9865,0.013260
1833.8502,0.013389
1835.7139,0.013472
1837.5776,0.013619
1839.4412,0.013506
1841.3049,0.013426
1843.1686,0.013129
1845.0322,0.013070
1846.8959,0.013084
1848.7596,0.013397
1850.6232,0.013478
1852.4869,0.013680
1854.3506,0.013809
1856.2142,0.013725
1858.0779,0.013632
1859.9416,0.013969
1861.8052,0.013863
1863.6689,0.013810
1865.5326,0.013790
1867.3963,0.013874
1869.2599,0.013448
1871.1236,0.013522
1872.9873,0.013981
1874.8509,0.014086
1876.7146,0.013916
1878.5783,0.014193
1880.4419,0.014170
1882.3056,0.014541
1884.1693,0.014774
1886.0329,0.015045
1887.8966,0.014813
1889.7603,0.014836
1891.6240,0.015102
1893.4876,0.015529
1895.3513,0.015644
1897.2150,0.015493
1899.0786,0.015687
1900.9423,0.016269
1902.8060,0.016193
1904.6696,0.016218
1906.5333,0.016180
1908.3970,0.016386
1910.2606,0.016413
1912.1243,0.016502
1913.9880,0.016200
1915.8516,0.016335
1917.7153,0.016013
1919.5790,0.015787
1921.4427,0.015638
1923.3063,0.015362
1925.1700,0.015214
1927.0337,0.015706
1928.8973,0.015206
1930.7610,0.015027
1932.6247,0.014696
1934.4883,0.014585
1936.3520,0.014235
1938.2157,0.014025
1940.0793,0.013301
1941.9430,0.013019
1943.8067,0.012555
1945.6704,0.012327
1947.5340,0.011512
1949.3977,0.011409
1951.2614,0.011512
1953.1250,0.011608
1954.9887,0.010956
1956.8524,0.010426
1958.7160,0.009455
1960.5797,0.009363
1962.4434,0.008061
1964.3070,0.006231
1966.1707,0.005856
1968.0344,0.006220
1969.8980,0.005362
1971.7617,0.006186
1973.6254,0.006490
1975.4891,0.006880
1977.3527,0.005509
1979.2164,0.007347
1981.0801,0.009117
1982.9437,0.008729
1984.8074,0.008135
1986.6711,0.008533
1988.5347,0.009603
1990.3984,0.010217
1992.2621,0.009373
1994.1257,0.009041
1995.9894,0.009061
1997.8531,0.010179
1999.7167,0.009654
2001.5804,0.007842
2003.4441,0.006612
2005.3078,0.007096
2007.1714,0.007784
2009.0351,0.008081
2010.8988,0.008220
2012.7624,0.009169
2014.6261,0.009186
2016.4898,0.008721
2018.3534,0.006870
2020.2171,0.006557
2022.0808,0.006700
2023.9444,0.007537
2025.8081,0.007520
2027.6718,0.007670
2029.5355,0.006477
2031.3991,0.006486
2033.2628,0.007120
2035.1265,0.007632
2036.9901,0.008319
2038.8538,0.008971
2040.7175,0.008406
2042.5811,0.009383
2044.4448,0.010116
2046.3085,0.010604
2048.1721,0.010812
2050.0358,0.011895
2051.8995,0.012757
2053.7631,0.013058
2055.6268,0.012393
2057.4905,0.012607
2059.3542,0.012873
2061.2178,0.013000
2063.0815,0.013544
2064.9452,0.014273
2066.8088,0.014222
2068.6725,0.014772
2070.5362,0.014262
2072.3998,0.014350
2074.2635,0.014463
2076.1272,0.015087
2077.9908,0.015592
2079.8545,0.015882
2081.7182,0.015867
2083.5819,0.015843
2085.4455,0.015691
2087.3092,0.016131
2089.1729,0.016390
2091.0365,0.016304
2092.9002,0.016203
2094.7639,0.016255
2096.6275,0.016015
2098.4912,0.016785
2100.3549,0.017041
2102.2185,0.016425
2104.0822,0.015952
2105.9459,0.016426
2107.8095,0.016209
2109.6732,0.016246
2111.5369,0.016561
2113.4006,0.017093
2115.2642,0.016675
2117.1279,0.016578
2118.9916,0.017065
2120.8552,0.016954
2122.7189,0.016716
2124.5826,0.017007
2126.4462,0.016443
2128.3099,0.016293
2130.1736,0.015626
2132.0372,0.014687
2133.9009,0.013872
2135.7646,0.014022
2137.6282,0.014564
2139.4919,0.014333
2141.3556,0.013644
2143.2193,0.013155
2145.0829,0.011411
2146.9466,0.010587
2148.8103,0.010748
2150.6739,0.011109
2152.5376,0.011123
2154.4013,0.010397
2156.2649,0.007482
2158.1286,0.006649
2159.9923,0.007288
2161.8559,0.008783
2163.7196,0.009499
2165.5833,0.010638
2167.4470,0.010337
2169.3106,0.011366
2171.1743,0.010573
2173.0380,0.010425
2174.9016,0.011163
2176.7653,0.011818
2178.6290,0.011392
2180.4926,0.011232
2182.3563,0.011059
2184.2200,0.011947
2186.0836,0.012079
2187.9473,0.012370
2189.8110,0.013056
2191.6746,0.013943
2193.5383,0.013904
2195.4020,0.013968
2197.2657,0.013473
2199.1293,0.013795
2200.9930,0.013831
2202.8567,0.014863
2204.7203,0.015884
2206.5840,0.016198
2208.4477,0.015955
2210.3113,0.015979
2212.1750,0.016085
2214.0387,0.016410
2215.9023,0.016405
2217.7660,0.016822
2219.6297,0.017589
2221.4934,0.017727
2223.3570,0.018310
2225.2207,0.018778
2227.0844,0.017743
2228.9480,0.017424
2230.8117,0.017395
2232.6754,0.018069
2234.5390,0.018711
2236.4027,0.018807
2238.2664,0.019177
2240.1300,0.019136
2241.9937,0.018946
2243.8574,0.020031
2245.7210,0.020710
2247.5847,0.020393
2249.4484,0.020177
2251.3121,0.020094
2253.1757,0.019809
2255.0394,0.020814
2256.9031,0.021620
2258.7667,0.021698
2260.6304,0.021433
2262.4941,0.021233
2264.3577,0.021269
2266.2214,0.021778
2268.0851,0.022218
2269.9487,0.022561
2271.8124,0.022995
2273.6761,0.023558
2275.5397,0.024179
2277.4034,0.024702
2279.2671,0.024703
2281.1308,0.025216
2282.9944,0.025261
2284.8581,0.025465
2286.7218,0.025756
2288.5854,0.025685
2290.4491,0.025369
2292.3128,0.025326
2294.1764,0.025716
2296.0401,0.025888
2297.9038,0.026152
2299.7674,0.026448
2301.6311,0.026179
2303.4948,0.026185
2305.3585,0.025945
2307.2221,0.026282
2309.0858,0.026607
2310.9495,0.026684
2312.8131,0.026639
2314.6768,0.026244
2316.5405,0.026077
2318.4041,0.026287
2320.2678,0.026464
2322.1315,0.026700
2323.9951,0.027070
2325.8588,0.026811
2327.7225,0.026081
2329.5861,0.025705
2331.4498,0.025591
2333.3135,0.025459
2335.1772,0.024979
2337.0408,0.025182
2338.9045,0.025602
2340.7682,0.025802
2342.6318,0.025966
2344.4955,0.026212
2346.3592,0.026167
2348.2228,0.025591
2350.0865,0.025083
2351.9502,0.025053
2353.8138,0.025374
2355.6775,0.025597
2357.5412,0.025602
2359.4049,0.025453
2361.2685,0.025029
2363.1322,0.025107
2364.9959,0.025408
2366.8595,0.025718
2368.7232,0.026344
2370.5869,0.026877
2372.4505,0.026896
2374.3142,0.026850
2376.1779,0.026810
2378.0415,0.026956
2379.9052,0.027060
2381.7689,0.026976
2383.6325,0.026956
2385.4962,0.026987
2387.3599,0.027063
2389.2236,0.027219
2391.0872,0.027430
2392.9509,0.027554
2394.8146,0.027243
2396.6782,0.027133
2398.5419,0.027441
2400.4056,0.027577
2402.2692,0.027350
2404.1329,0.027543
2405.9966,0.027810
2407.8602,0.027863
2409.7239,0.028072
2411.5876,0.028215
2413.4512,0.028078
2415.3149,0.028014
2417.1786,0.028473
2419.0423,0.028585
2420.9059,0.028546
2422.7696,0.028649
2424.6333,0.028802
2426.4969,0.028690
2428.3606,0.028675
2430.2243,0.029264
2432.0879,0.029276
2433.9516,0.028853
2435.8153,0.028948
2437.6789,0.029240
2439.5426,0.029092
2441.4063,0.028998
2443.2700,0.028923
2445.1336,0.028635
2446.9973,0.028595
2448.8610,0.029140
2450.7246,0.029182
2452.5883,0.028731
2454.4520,0.028833
2456.3156,0.028986
2458.1793,0.028890
2460.0430,0.028950
2461.9066,0.028894
2463.7703,0.029101
2465.6340,0.029162
2467.4976,0.028490
2469.3613,0.028275
2471.2250,0.028479
2473.0887,0.028500
2474.9523,0.028606
2476.8160,0.028561
2478.6797,0.028760
2480.5433,0.028844
2482.4070,0.029061
2484.2707,0.029285
2486.1343,0.029301
2487.9980,0.029131
2489.8617,0.029288
2491.7253,0.029475
2493.5890,0.029462
2495.4527,0.029644
2497.3164,0.029932
2499.1800,0.029549
2501.0437,0.029365
2502.9074,0.029863
2504.7710,0.030082
2506.6347,0.029985
2508.4984,0.030016
2510.3620,0.029831
2512.2257,0.030006
2514.0894,0.030454
2515.9530,0.030374
2517.8167,0.029973
2519.6804,0.030442
2521.5440,0.030808
2523.4077,0.030538
2525.2714,0.030611
2527.1351,0.030856
