Wavenumber,Intensity
650.4205,0.230114
652.2841,0.226155
654.1478,0.224042
656.0115,0.223080
657.8751,0.222014
659.7388,0.219768
661.6025,0.219165
663.4661,0.218727
665.3298,0.218405
667.1935,0.222004
669.0571,0.226451
670.9208,0.220661
672.7845,0.214452
674.6481,0.208725
676.5118,0.206751
678.3755,0.205432
680.2392,0.204781
682.1028,0.203362
683.9665,0.202092
685.8302,0.201542
687.6938,0.200747
689.5575,0.197866
691.4212,0.196725
693.2848,0.195875
695.1485,0.195419
697.0122,0.196394
698.8758,0.197229
700.7395,0.196772
702.6032,0.195779
704.4669,0.191802
706.3305,0.187196
708.1942,0.181750
710.0579,0.173652
711.9215,0.165069
713.7852,0.158446
715.6489,0.152366
717.5125,0.146100
719.3762,0.139840
721.2399,0.135287
723.1035,0.131234
724.9672,0.126444
726.8309,0.122297
728.6945,0.118818
730.5582,0.114825
732.4219,0.110882
734.2856,0.107521
736.1492,0.105316
738.0129,0.104022
739.8766,0.103834
741.7402,0.105097
743.6039,0.107269
745.4676,0.108676
747.3312,0.108390
749.1949,0.107454
751.0586,0.106479
752.9222,0.105091
754.7859,0.103935
756.6496,0.103236
758.5132,0.102663
760.3769,0.101904
762.2406,0.101072
764.1043,0.100391
765.9679,0.100193
767.8316,0.100057
769.6953,0.099900
771.5589,0.099879
773.4226,0.100354
775.2863,0.101146
777.1499,0.101833
779.0136,0.102205
780.8773,0.102657
782.7409,0.103186
784.6046,0.104137
786.4683,0.105656
788.3320,0.107399
790.1956,0.109001
792.0593,0.110434
793.9230,0.111897
795.7866,0.113562
797.6503,0.115508
799.5140,0.116780
801.3776,0.117310
803.2413,0.117648
805.1050,0.117125
806.9686,0.116035
808.8323,0.114322
810.6960,0.111745
812.5596,0.108682
814.4233,0.105720
816.2870,0.102425
818.1507,0.099373
820.0143,0.096873
821.8780,0.094920
823.7417,0.094089
825.6053,0.094608
827.4690,0.096271
829.3327,0.096976
831.1963,0.091832
833.0600,0.081567
834.9237,0.073011
836.7873,0.068951
838.6510,0.067500
840.5147,0.066820
842.3784,0.066447
844.2420,0.066316
846.1057,0.066415
847.9694,0.066462
849.8330,0.066116
851.6967,0.065711
853.5604,0.065716
855.4240,0.065760
857.2877,0.065782
859.1514,0.065978
861.0150,0.065928
862.8787,0.065786
864.7424,0.065913
866.6060,0.066174
868.4697,0.066301
870.3334,0.066240
872.1971,0.066360
874.0607,0.066496
875.9244,0.066663
877.7881,0.067086
879.6517,0.067398
881.5154,0.067483
883.3791,0.067705
885.2427,0.068105
887.1064,0.068607
888.9701,0.069116
890.8337,0.069687
892.6974,0.070426
894.5611,0.071309
896.4247,0.072515
898.2884,0.074078
900.1521,0.075707
902.0158,0.077610
903.8794,0.080146
905.7431,0.083649
907.6068,0.088129
909.4704,0.093136
911.3341,0.099264
913.1978,0.106553
915.0614,0.110651
916.9251,0.104493
918.7888,0.090789
920.6524,0.079649
922.5161,0.074591
924.3798,0.073140
926.2435,0.073127
928.1071,0.073636
929.9708,0.074231
931.8345,0.074782
933.6981,0.075412
935.5618,0.076232
937.4255,0.077034
939.2891,0.077832
941.1528,0.078711
943.0165,0.079596
944.8801,0.080390
946.7438,0.081330
948.6075,0.082523
950.4711,0.083726
952.3348,0.084901
954.1985,0.086181
956.0622,0.087571
957.9258,0.089037
959.7895,0.090689
961.6532,0.092404
963.5168,0.094186
965.3805,0.096367
967.2442,0.098984
969.1078,0.101913
970.9715,0.104916
972.8352,0.108483
974.6988,0.114054
976.5625,0.123189
978.4262,0.138436
980.2899,0.160049
982.1535,0.169851
984.0172,0.146985
985.8809,0.115712
987.7445,0.101619
989.6082,0.099707
991.4719,0.100732
993.3355,0.102709
995.1992,0.105047
997.0629,0.107262
998.9265,0.109614
1000.7902,0.112133
1002.6539,0.114623
1004.5175,0.117233
1006.3812,0.119917
1008.2449,0.122439
1010.1086,0.124830
1011.9722,0.126967
1013.8359,0.128395
1015.6996,0.129199
1017.5632,0.129405
1019.4269,0.128886
1021.2906,0.127939
1023.1542,0.126895
1025.0179,0.126039
1026.8816,0.125502
1028.7452,0.125162
1030.6089,0.125028
1032.4726,0.125120
1034.3362,0.125526
1036.1999,0.126313
1038.0636,0.127503
1039.9273,0.129196
1041.7909,0.131335
1043.6546,0.133879
1045.5183,0.136595
1047.3819,0.138419
1049.2456,0.137366
1051.1093,0.131725
1052.9729,0.122720
1054.8366,0.114053
1056.7003,0.108228
1058.5639,0.105290
1060.4276,0.104411
1062.2913,0.104673
1064.1550,0.105272
1066.0186,0.106094
1067.8823,0.107268
1069.7460,0.108733
1071.6096,0.110530
1073.4733,0.112515
1075.3370,0.114655
1077.2006,0.116823
1079.0643,0.118889
1080.9280,0.120998
1082.7916,0.123061
1084.6553,0.125150
1086.5190,0.127540
1088.3826,0.130207
1090.2463,0.133275
1092.1100,0.136975
1093.9737,0.141230
1095.8373,0.146042
1097.7010,0.151513
1099.5647,0.157309
1101.4283,0.163129
1103.2920,0.168342
1105.1557,0.171603
1107.0193,0.171287
1108.8830,0.166297
1110.7467,0.156688
1112.6103,0.144311
1114.4740,0.131719
1116.3377,0.120555
1118.2014,0.111437
1120.0650,0.104493
1121.9287,0.099670
1123.7924,0.096487
1125.6560,0.093996
1127.5197,0.091619
1129.3834,0.089363
1131.2470,0.087307
1133.1107,0.085441
1134.9744,0.083882
1136.8380,0.082860
1138.7017,0.082298
1140.5654,0.082015
1142.4290,0.081934
1144.2927,0.081969
1146.1564,0.082081
1148.0201,0.082276
1149.8837,0.082648
1151.7474,0.083157
1153.6111,0.083785
1155.4747,0.084628
1157.3384,0.085631
1159.2021,0.086828
1161.0657,0.088333
1162.9294,0.090124
1164.7931,0.092229
1166.6567,0.094877
1168.5204,0.097984
1170.3841,0.100962
1172.2477,0.102791
1174.1114,0.102068
1175.9751,0.098307
1177.8388,0.093176
1179.7024,0.088861
1181.5661,0.086267
1183.4298,0.085145
1185.2934,0.084865
1187.1571,0.084885
1189.0208,0.085034
1190.8844,0.085274
1192.7481,0.085509
1194.6118,0.085785
1196.4754,0.086192
1198.3391,0.086596
1200.2028,0.086893
1202.0665,0.087142
1203.9301,0.087283
1205.7938,0.087269
1207.6575,0.087269
1209.5211,0.087382
1211.3848,0.087599
1213.2485,0.087988
1215.1121,0.088544
1216.9758,0.089244
1218.8395,0.090063
1220.7031,0.090887
1222.5668,0.091665
1224.4305,0.092503
1226.2941,0.093342
1228.1578,0.093985
1230.0215,0.094538
1231.8852,0.095104
1233.7488,0.095556
1235.6125,0.095917
1237.4762,0.096327
1239.3398,0.096763
1241.2035,0.097126
1243.0672,0.097450
1244.9308,0.097738
1246.7945,0.098005
1248.6582,0.098265
1250.5218,0.098494
1252.3855,0.098833
1254.2492,0.099235
1256.1129,0.099544
1257.9765,0.099876
1259.8402,0.100552
1261.7039,0.101428
1263.5675,0.102134
1265.4312,0.102737
1267.2949,0.103111
1269.1585,0.103093
1271.0222,0.102974
1272.8859,0.102973
1274.7495,0.103183
1276.6132,0.103861
1278.4769,0.104953
1280.3405,0.106228
1282.2042,0.107569
1284.0679,0.108830
1285.9316,0.110244
1287.7952,0.112295
1289.6589,0.114820
1291.5226,0.117648
1293.3862,0.121046
1295.2499,0.125328
1297.1136,0.130726
1298.9772,0.137096
1300.8409,0.144592
1302.7046,0.152786
1304.5682,0.159006
1306.4319,0.158971
1308.2956,0.148700
1310.1592,0.129401
1312.0229,0.109713
1313.8866,0.096772
1315.7503,0.091579
1317.6139,0.091398
1319.4776,0.093536
1321.3413,0.095713
1323.2049,0.097805
1325.0686,0.100356
1326.9323,0.102985
1328.7959,0.105624
1330.6596,0.108145
1332.5233,0.109997
1334.3869,0.110828
1336.2506,0.111245
1338.1143,0.112828
1339.9780,0.115381
1341.8416,0.115399
1343.7053,0.114080
1345.5690,0.114090
1347.4326,0.114886
1349.2963,0.116014
1351.1600,0.117276
1353.0236,0.118881
1354.8873,0.121354
1356.7510,0.123792
1358.6146,0.125478
1360.4783,0.128119
1362.3420,0.134205
1364.2056,0.139626
1366.0693,0.141066
1367.9330,0.144181
1369.7967,0.148581
1371.6603,0.151625
1373.5240,0.157529
1375.3877,0.165167
1377.2513,0.168812
1379.1150,0.173284
1380.9787,0.179535
1382.8423,0.185436
1384.7060,0.191683
1386.5697,0.201230
1388.4333,0.212608
1390.2970,0.216658
1392.1607,0.217490
1394.0244,0.218480
1395.8880,0.214684
1397.7517,0.205889
1399.6154,0.195848
1401.4790,0.184755
1403.3427,0.174882
1405.2064,0.161961
1407.0700,0.143718
1408.9337,0.125887
1410.7974,0.110301
1412.6610,0.099041
1414.5247,0.093120
1416.3884,0.092165
1418.2520,0.097827
1420.1157,0.107829
1421.9794,0.110717
1423.8431,0.108898
1425.7067,0.101561
1427.5704,0.092647
1429.4341,0.087898
1431.2977,0.086588
1433.1614,0.086020
1435.0251,0.087396
1436.8887,0.093607
1438.7524,0.096802
1440.6161,0.096031
1442.4797,0.097038
1444.3434,0.098123
1446.2071,0.099090
1448.0707,0.100606
1449.9344,0.099149
1451.7981,0.094815
1453.6618,0.090342
1455.5254,0.089061
1457.3891,0.096189
1459.2528,0.098387
1461.1164,0.093776
1462.9801,0.092063
1464.8438,0.093664
1466.7074,0.093305
1468.5711,0.089514
1470.4348,0.087209
1472.2984,0.089365
1474.1621,0.092869
1476.0258,0.091952
1477.8895,0.090719
1479.7531,0.089890
1481.6168,0.090653
1483.4805,0.090948
1485.3441,0.090445
1487.2078,0.091996
1489.0715,0.097024
1490.9351,0.101647
1492.7988,0.099998
1494.6625,0.098595
1496.5261,0.103074
1498.3898,0.108636
1500.2535,0.108911
1502.1171,0.106763
1503.9808,0.104750
1505.8445,0.109015
1507.7082,0.126713
1509.5718,0.124889
1511.4355,0.121016
1513.2992,0.120263
1515.1628,0.120769
1517.0265,0.123991
1518.8902,0.125629
1520.7538,0.127661
1522.6175,0.133690
1524.4812,0.132875
1526.3448,0.133429
1528.2085,0.134598
1530.0722,0.133088
1531.9359,0.133517
1533.7995,0.137946
1535.6632,0.137187
1537.5269,0.133691
1539.3905,0.138558
1541.2542,0.152203
1543.1179,0.151742
1544.9815,0.151412
1546.8452,0.150175
1548.7089,0.149548
1550.5725,0.152090
1552.4362,0.152885
1554.2999,0.152674
1556.1635,0.153551
1558.0272,0.160742
1559.8909,0.183466
1561.7546,0.173796
1563.6182,0.167947
1565.4819,0.168954
1567.3456,0.170590
1569.2092,0.175176
1571.0729,0.180569
1572.9366,0.178506
1574.8002,0.180388
1576.6639,0.190715
1578.5276,0.194075
1580.3912,0.192446
1582.2549,0.194214
1584.1186,0.196321
1585.9822,0.197655
1587.8459,0.198483
1589.7096,0.198899
1591.5733,0.198483
1593.4369,0.197781
1595.3006,0.196851
1597.1643,0.194885
1599.0279,0.192321
1600.8916,0.190170
1602.7553,0.188545
1604.6189,0.186859
1606.4826,0.185281
1608.3463,0.184438
1610.2099,0.183250
1612.0736,0.180254
1613.9373,0.176520
1615.8010,0.174222
1617.6646,0.170542
1619.5283,0.162275
1621.3920,0.155972
1623.2556,0.150623
1625.1193,0.143284
1626.9830,0.135515
1628.8466,0.126800
1630.7103,0.117132
1632.5740,0.108981
1634.4376,0.102469
1636.3013,0.097747
1638.1650,0.093076
1640.0286,0.089940
1641.8923,0.087840
1643.7560,0.086822
1645.6197,0.087961
1647.4833,0.092318
1649.3470,0.092214
1651.2107,0.091129
1653.0743,0.097112
1654.9380,0.103998
1656.8017,0.099462
1658.6653,0.097222
1660.5290,0.096158
1662.3927,0.095745
1664.2563,0.094027
1666.1200,0.090764
1667.9837,0.088413
1669.8474,0.087827
1671.7110,0.086223
1673.5747,0.084801
1675.4384,0.086098
1677.3020,0.087822
1679.1657,0.087941
1681.0294,0.089728
1682.8930,0.092696
1684.7567,0.099240
1686.6204,0.099480
1688.4840,0.095929
1690.3477,0.092973
1692.2114,0.088876
1694.0750,0.084654
1695.9387,0.081025
1697.8024,0.076723
1699.6661,0.073189
1701.5297,0.067051
1703.3934,0.060413
1705.2571,0.053521
1707.1207,0.045570
1708.9844,0.039370
1710.8481,0.034721
1712.7117,0.030946
1714.5754,0.028336
1716.4391,0.026828
1718.3027,0.026745
1720.1664,0.025550
1722.0301,0.023998
1723.8937,0.022313
1725.7574,0.020459
1727.6211,0.018441
1729.4848,0.016908
1731.3484,0.015668
1733.2121,0.014963
1735.0758,0.014933
1736.9394,0.014298
1738.8031,0.013187
1740.6668,0.013185
1742.5304,0.013073
1744.3941,0.012860
1746.2578,0.012343
1748.1214,0.011783
1749.9851,0.011678
1751.8488,0.012046
1753.7125,0.011631
1755.5761,0.011063
1757.4398,0.011047
1759.3035,0.011195
1761.1671,0.010965
1763.0308,0.011338
1764.8945,0.011135
1766.7581,0.010874
1768.6218,0.010795
1770.4855,0.010663
1772.3491,0.010768
1774.2128,0.011405
1776.0765,0.010938
1777.9401,0.010616
1779.8038,0.010624
1781.6675,0.011149
1783.5312,0.011177
1785.3948,0.011163
1787.2585,0.011132
1789.1222,0.010895
1790.9858,0.010758
1792.8495,0.011360
1794.7132,0.011556
1796.5768,0.011256
1798.4405,0.010886
1800.3042,0.010943
1802.1678,0.011463
1804.0315,0.011794
1805.8952,0.011529
1807.7589,0.011350
1809.6225,0.011341
1811.4862,0.011627
1813.3499,0.011564
1815.2135,0.011167
1817.0772,0.010889
1818.9409,0.011192
1820.8045,0.011371
1822.6682,0.011244
1824.5319,0.011154
1826.3955,0.011372
1828.2592,0.011050
1830.1229,0.011255
1831.9865,0.011572
1833.8502,0.011226
1835.7139,0.010985
1837.5776,0.011156
1839.4412,0.011192
1841.3049,0.011081
1843.1686,0.010824
1845.0322,0.011256
1846.8959,0.011588
1848.7596,0.011547
1850.6232,0.011539
1852.4869,0.011408
1854.3506,0.011156
1856.2142,0.011395
1858.0779,0.011780
1859.9416,0.011952
1861.8052,0.011789
1863.6689,0.011899
1865.5326,0.011691
1867.3963,0.011423
1869.2599,0.011610
1871.1236,0.011880
1872.9873,0.011398
1874.8509,0.011449
1876.7146,0.011560
1878.5783,0.011449
1880.4419,0.011218
1882.3056,0.011376
1884.1693,0.011536
1886.0329,0.011796
1887.8966,0.011589
1889.7603,0.011430
1891.6240,0.011602
1893.4876,0.011746
1895.3513,0.011619
1897.2150,0.011732
1899.0786,0.011390
1900.9423,0.011059
1902.8060,0.011046
1904.6696,0.011541
1906.5333,0.011677
1908.3970,0.011729
1910.2606,0.011597
1912.1243,0.012027
1913.9880,0.011988
1915.8516,0.011863
1917.7153,0.011840
1919.5790,0.011747
1921.4427,0.011125
1923.3063,0.010743
1925.1700,0.010648
1927.0337,0.011067
1928.8973,0.011194
1930.7610,0.011259
1932.6247,0.011050
1934.4883,0.011375
1936.3520,0.011107
1938.2157,0.010719
1940.0793,0.010075
1941.9430,0.010245
1943.8067,0.010701
1945.6704,0.010184
1947.5340,0.008862
1949.3977,0.009842
1951.2614,0.010696
1953.1250,0.010807
1954.9887,0.009925
1956.8524,0.009320
1958.7160,0.008655
1960.5797,0.007731
1962.4434,0.007173
1964.3070,0.008101
1966.1707,0.007310
1968.0344,0.006774
1969.8980,0.006116
1971.7617,0.005184
1973.6254,0.003824
1975.4891,0.004928
1977.3527,0.006049
1979.2164,0.007148
1981.0801,0.007985
1982.9437,0.007590
1984.8074,0.006903
1986.6711,0.008048
1988.5347,0.008375
1990.3984,0.008874
1992.2621,0.009048
1994.1257,0.008610
1995.9894,0.009184
1997.8531,0.009681
1999.7167,0.007985
2001.5804,0.007964
2003.4441,0.007250
2005.3078,0.007415
2007.1714,0.007142
2009.0351,0.006345
2010.8988,0.005771
2012.7624,0.006026
2014.6261,0.005103
2016.4898,0.005996
2018.3534,0.006839
2020.2171,0.006772
2022.0808,0.005278
2023.9444,0.004773
2025.8081,0.004955
2027.6718,0.005888
2029.5355,0.006527
2031.3991,0.006791
2033.2628,0.005840
2035.1265,0.006843
2036.9901,0.008118
2038.8538,0.007671
2040.7175,0.006991
2042.5811,0.007746
2044.4448,0.008815
2046.3085,0.009797
2048.1721,0.010405
2050.0358,0.010706
2051.8995,0.010420
2053.7631,0.011210
2055.6268,0.012488
2057.4905,0.012990
2059.3542,0.012371
2061.2178,0.012435
2063.0815,0.012873
2064.9452,0.013247
2066.8088,0.012810
2068.6725,0.013202
2070.5362,0.012928
2072.3998,0.012599
2074.2635,0.012614
2076.1272,0.013428
2077.9908,0.013905
2079.8545,0.014557
2081.7182,0.014925
2083.5819,0.015070
2085.4455,0.015474
2087.3092,0.016095
2089.1729,0.015373
2091.0365,0.014323
2092.9002,0.014147
2094.7639,0.014049
2096.6275,0.013906
2098.4912,0.014882
2100.3549,0.015016
2102.2185,0.015368
2104.0822,0.015868
2105.9459,0.015825
2107.8095,0.015144
2109.6732,0.015228
2111.5369,0.015753
2113.4006,0.016088
2115.2642,0.015772
2117.1279,0.015644
2118.9916,0.015515
2120.8552,0.015452
2122.7189,0.015043
2124.5826,0.014820
2126.4462,0.014307
2128.3099,0.014720
2130.1736,0.014307
2132.0372,0.013869
2133.9009,0.014410
2135.7646,0.014508
2137.6282,0.013493
2139.4919,0.013528
2141.3556,0.013178
2143.2193,0.012849
2145.0829,0.011504
2146.9466,0.010992
2148.8103,0.010633
2150.6739,0.009883
2152.5376,0.008695
2154.4013,0.006845
2156.2649,0.005891
2158.1286,0.007752
2159.9923,0.007648
2161.8559,0.008152
2163.7196,0.009171
2165.5833,0.010071
2167.4470,0.010034
2169.3106,0.009927
2171.1743,0.008728
2173.0380,0.009434
2174.9016,0.011359
2176.7653,0.012090
2178.6290,0.010042
2180.4926,0.009505
2182.3563,0.009812
2184.2200,0.011479
2186.0836,0.012031
2187.9473,0.011787
2189.8110,0.011829
2191.6746,0.011557
2193.5383,0.012519
2195.4020,0.014263
2197.2657,0.013947
2199.1293,0.013193
2200.9930,0.013839
2202.8567,0.014167
2204.7203,0.013813
2206.5840,0.014623
2208.4477,0.014749
2210.3113,0.014363
2212.1750,0.014647
2214.0387,0.015535
2215.9023,0.015365
2217.7660,0.014924
2219.6297,0.014824
2221.4934,0.016033
2223.3570,0.016640
2225.2207,0.016634
2227.0844,0.016074
2228.9480,0.015947
2230.8117,0.016427
2232.6754,0.016720
2234.5390,0.016847
2236.4027,0.017185
2238.2664,0.017375
2240.1300,0.017046
2241.9937,0.016741
2243.8574,0.017414
2245.7210,0.017999
2247.5847,0.018198
2249.4484,0.018349
2251.3121,0.018554
2253.1757,0.018454
2255.0394,0.018521
2256.9031,0.018403
2258.7667,0.018611
2260.6304,0.018535
2262.4941,0.018791
2264.3577,0.019382
2266.2214,0.019525
2268.0851,0.019618
2269.9487,0.020454
2271.8124,0.021179
2273.6761,0.021455
2275.5397,0.021508
2277.4034,0.021608
2279.2671,0.021172
2281.1308,0.020849
2282.9944,0.021559
2284.8581,0.022018
2286.7218,0.022072
2288.5854,0.022391
2290.4491,0.022554
2292.3128,0.022554
2294.1764,0.022650
2296.0401,0.022892
2297.9038,0.022843
2299.7674,0.022831
2301.6311,0.022850
2303.4948,0.022946
2305.3585,0.022932
2307.2221,0.023032
2309.0858,0.023283
2310.9495,0.023348
2312.8131,0.023053
2314.6768,0.023169
2316.5405,0.023019
2318.4041,0.023003
2320.2678,0.023273
2322.1315,0.023278
2323.9951,0.023214
2325.8588,0.023011
2327.7225,0.022442
2329.5861,0.022125
2331.4498,0.021992
2333.3135,0.022128
2335.1772,0.022169
2337.0408,0.022184
2338.9045,0.022162
2340.7682,0.022422
2342.6318,0.023015
2344.4955,0.023481
2346.3592,0.023129
2348.2228,0.022374
2350.0865,0.021451
2351.9502,0.020922
2353.8138,0.021095
2355.6775,0.021075
2357.5412,0.021335
2359.4049,0.021896
2361.2685,0.021661
2363.1322,0.021501
2364.9959,0.021627
2366.8595,0.022323
2368.7232,0.022938
2370.5869,0.022960
2372.4505,0.022646
2374.3142,0.022625
2376.1779,0.023263
2378.0415,0.023526
2379.9052,0.023407
2381.7689,0.023162
2383.6325,0.022973
2385.4962,0.023013
2387.3599,0.023036
2389.2236,0.022950
2391.0872,0.022997
2392.9509,0.023181
2394.8146,0.023312
2396.6782,0.023227
2398.5419,0.023242
2400.4056,0.023385
2402.2692,0.023496
2404.1329,0.023511
2405.9966,0.023462
2407.8602,0.023444
2409.7239,0.023480
2411.5876,0.023650
2413.4512,0.023984
2415.3149,0.024001
2417.1786,0.023860
2419.0423,0.024099
2420.9059,0.024408
2422.7696,0.024708
2424.6333,0.024440
2426.4969,0.023924
2428.3606,0.024314
2430.2243,0.024446
2432.0879,0.024428
2433.9516,0.024443
2435.8153,0.024064
2437.6789,0.024222
2439.5426,0.024405
2441.4063,0.024729
2443.2700,0.024937
2445.1336,0.024995
2446.9973,0.025145
2448.8610,0.024892
2450.7246,0.024651
2452.5883,0.024699
2454.4520,0.024654
2456.3156,0.024543
2458.1793,0.024767
2460.0430,0.024632
2461.9066,0.024271
2463.7703,0.024203
2465.6340,0.024145
2467.4976,0.024136
2469.3613,0.024280
2471.2250,0.024651
2473.0887,0.024911
2474.9523,0.024711
2476.8160,0.024381
2478.6797,0.024767
2480.5433,0.025119
2482.4070,0.025032
2484.2707,0.024909
2486.1343,0.024999
2487.9980,0.024903
2489.8617,0.025143
2491.7253,0.025732
2493.5890,0.025852
2495.4527,0.025435
2497.3164,0.025747
2499.1800,0.025912
2501.0437,0.025925
2502.9074,0.025915
2504.7710,0.025728
2506.6347,0.026221
2508.4984,0.026358
2510.3620,0.026158
2512.2257,0.026308
2514.0894,0.026159
2515.9530,0.026316
2517.8167,0.026600
2519.6804,0.026533
2521.5440,0.026271
2523.4077,0.027054
2525.2714,0.027302
2527.1351,0.026404
