Wavenumber,Intensity
650.4205,0.243894
652.2841,0.239695
654.1478,0.234435
656.0115,0.231481
657.8751,0.231183
659.7388,0.229263
661.6025,0.229882
663.4661,0.230981
665.3298,0.230124
667.1935,0.233298
669.0571,0.235167
670.9208,0.227316
672.7845,0.223568
674.6481,0.222415
676.5118,0.221024
678.3755,0.217903
680.2392,0.215054
682.1028,0.211817
683.9665,0.210739
685.8302,0.210393
687.6938,0.210312
689.5575,0.209249
691.4212,0.208289
693.2848,0.206491
695.1485,0.205125
697.0122,0.205871
698.8758,0.207805
700.7395,0.207674
702.6032,0.205740
704.4669,0.202769
706.3305,0.198061
708.1942,0.190530
710.0579,0.181471
711.9215,0.172430
713.7852,0.164923
715.6489,0.157805
717.5125,0.151807
719.3762,0.146262
721.2399,0.141312
723.1035,0.137200
724.9672,0.132585
726.8309,0.127861
728.6945,0.124148
730.5582,0.120781
732.4219,0.116853
734.2856,0.112900
736.1492,0.109910
738.0129,0.108235
739.8766,0.108687
741.7402,0.110764
743.6039,0.112931
745.4676,0.114036
747.3312,0.113782
749.1949,0.112930
751.0586,0.112044
752.9222,0.110417
754.7859,0.109080
756.6496,0.107985
758.5132,0.106871
760.3769,0.106001
762.2406,0.105396
764.1043,0.104899
765.9679,0.104575
767.8316,0.104046
769.6953,0.103878
771.5589,0.104266
773.4226,0.104721
775.2863,0.105345
777.1499,0.105944
779.0136,0.106554
780.8773,0.107470
782.7409,0.108468
784.6046,0.109937
786.4683,0.111333
788.3320,0.112553
790.1956,0.114449
792.0593,0.116665
793.9230,0.118274
795.7866,0.119634
797.6503,0.121571
799.5140,0.123377
801.3776,0.123987
803.2413,0.124265
805.1050,0.123938
806.9686,0.122656
808.8323,0.120776
810.6960,0.118309
812.5596,0.115351
814.4233,0.112267
816.2870,0.109039
818.1507,0.105969
820.0143,0.103163
821.8780,0.101084
823.7417,0.100083
825.6053,0.100174
827.4690,0.101968
829.3327,0.103319
831.1963,0.098081
833.0600,0.086515
834.9237,0.076582
836.7873,0.071867
838.6510,0.070187
840.5147,0.069370
842.3784,0.069049
844.2420,0.068887
846.1057,0.068663
847.9694,0.068628
849.8330,0.068682
851.6967,0.068539
853.5604,0.068454
855.4240,0.068461
857.2877,0.068267
859.1514,0.068072
861.0150,0.068052
862.8787,0.068304
864.7424,0.068537
866.6060,0.068505
868.4697,0.068535
870.3334,0.068651
872.1971,0.068746
874.0607,0.068968
875.9244,0.069219
877.7881,0.069480
879.6517,0.069743
881.5154,0.069990
883.3791,0.070410
885.2427,0.070767
887.1064,0.070948
888.9701,0.071379
890.8337,0.072188
892.6974,0.073113
894.5611,0.074020
896.4247,0.075102
898.2884,0.076436
900.1521,0.078083
902.0158,0.080274
903.8794,0.083145
905.7431,0.086870
907.6068,0.091453
909.4704,0.096965
911.3341,0.103788
913.1978,0.111972
915.0614,0.117118
916.9251,0.110943
918.7888,0.095903
920.6524,0.083338
922.5161,0.077438
924.3798,0.075564
926.2435,0.075349
928.1071,0.075899
929.9708,0.076612
931.8345,0.077310
933.6981,0.078089
935.5618,0.079038
937.4255,0.080031
939.2891,0.080947
941.1528,0.081920
943.0165,0.082866
944.8801,0.083857
946.7438,0.084976
948.6075,0.086088
950.4711,0.087242
952.3348,0.088477
954.1985,0.089846
956.0622,0.091301
957.9258,0.092774
959.7895,0.094429
961.6532,0.096225
963.5168,0.098141
965.3805,0.100470
967.2442,0.103324
969.1078,0.106549
970.9715,0.109936
972.8352,0.113968
974.6988,0.120089
976.5625,0.129981
978.4262,0.146597
980.2899,0.170114
982.1535,0.180389
984.0172,0.154829
985.8809,0.120363
987.7445,0.105106
989.6082,0.103371
991.4719,0.104808
993.3355,0.107047
995.1992,0.109691
997.0629,0.112299
998.9265,0.114867
1000.7902,0.117536
1002.6539,0.120272
1004.5175,0.122957
1006.3812,0.125612
1008.2449,0.128245
1010.1086,0.130613
1011.9722,0.132432
1013.8359,0.133694
1015.6996,0.134444
1017.5632,0.134542
1019.4269,0.134046
1021.2906,0.133310
1023.1542,0.132586
1025.0179,0.131931
1026.8816,0.131463
1028.7452,0.131251
1030.6089,0.131389
1032.4726,0.131756
1034.3362,0.132379
1036.1999,0.133369
1038.0636,0.134598
1039.9273,0.136289
1041.7909,0.138727
1043.6546,0.141601
1045.5183,0.144490
1047.3819,0.146317
1049.2456,0.144988
1051.1093,0.138761
1052.9729,0.128752
1054.8366,0.119031
1056.7003,0.112700
1058.5639,0.109805
1060.4276,0.109034
1062.2913,0.109334
1064.1550,0.110095
1066.0186,0.111127
1067.8823,0.112552
1069.7460,0.114289
1071.6096,0.116182
1073.4733,0.118146
1075.3370,0.120129
1077.2006,0.122147
1079.0643,0.124399
1080.9280,0.126858
1082.7916,0.129294
1084.6553,0.131737
1086.5190,0.134385
1088.3826,0.137374
1090.2463,0.140808
1092.1100,0.144896
1093.9737,0.149603
1095.8373,0.154740
1097.7010,0.160394
1099.5647,0.166625
1101.4283,0.172907
1103.2920,0.178276
1105.1557,0.181659
1107.0193,0.181366
1108.8830,0.175972
1110.7467,0.165712
1112.6103,0.152524
1114.4740,0.138851
1116.3377,0.126564
1118.2014,0.116561
1120.0650,0.109089
1121.9287,0.103961
1123.7924,0.100476
1125.6560,0.097705
1127.5197,0.095203
1129.3834,0.092888
1131.2470,0.090747
1133.1107,0.088951
1134.9744,0.087564
1136.8380,0.086533
1138.7017,0.085904
1140.5654,0.085646
1142.4290,0.085661
1144.2927,0.085796
1146.1564,0.085878
1148.0201,0.086025
1149.8837,0.086419
1151.7474,0.086917
1153.6111,0.087564
1155.4747,0.088492
1157.3384,0.089562
1159.2021,0.090824
1161.0657,0.092429
1162.9294,0.094259
1164.7931,0.096551
1166.6567,0.099543
1168.5204,0.103118
1170.3841,0.106784
1172.2477,0.109241
1174.1114,0.108632
1175.9751,0.104357
1177.8388,0.098502
1179.7024,0.093676
1181.5661,0.090797
1183.4298,0.089530
1185.2934,0.089220
1187.1571,0.089351
1189.0208,0.089607
1190.8844,0.089887
1192.7481,0.090158
1194.6118,0.090452
1196.4754,0.090800
1198.3391,0.091101
1200.2028,0.091389
1202.0665,0.091750
1203.9301,0.091984
1205.7938,0.092072
1207.6575,0.092164
1209.5211,0.092336
1211.3848,0.092685
1213.2485,0.093217
1215.1121,0.093799
1216.9758,0.094471
1218.8395,0.095234
1220.7031,0.096003
1222.5668,0.096781
1224.4305,0.097666
1226.2941,0.098465
1228.1578,0.099127
1230.0215,0.099762
1231.8852,0.100257
1233.7488,0.100649
1235.6125,0.101167
1237.4762,0.101668
1239.3398,0.102108
1241.2035,0.102481
1243.0672,0.102735
1244.9308,0.102937
1246.7945,0.103181
1248.6582,0.103546
1250.5218,0.103903
1252.3855,0.104254
1254.2492,0.104724
1256.1129,0.105112
1257.9765,0.105578
1259.8402,0.106391
1261.7039,0.107268
1263.5675,0.108009
1265.4312,0.108682
1267.2949,0.109044
1269.1585,0.109061
1271.0222,0.108969
1272.8859,0.108887
1274.7495,0.109072
1276.6132,0.109661
1278.4769,0.110628
1280.3405,0.111942
1282.2042,0.113317
1284.0679,0.114724
1285.9316,0.116506
1287.7952,0.118861
1289.6589,0.121481
1291.5226,0.124380
1293.3862,0.127999
1295.2499,0.132513
1297.1136,0.137916
1298.9772,0.144239
1300.8409,0.151833
1302.7046,0.160246
1304.5682,0.166959
1306.4319,0.167785
1308.2956,0.157835
1310.1592,0.137633
1312.0229,0.116404
1313.8866,0.102051
1315.7503,0.096231
1317.6139,0.095989
1319.4776,0.098099
1321.3413,0.100483
1323.2049,0.102924
1325.0686,0.105653
1326.9323,0.108457
1328.7959,0.111349
1330.6596,0.114122
1332.5233,0.116234
1334.3869,0.117415
1336.2506,0.118201
1338.1143,0.119952
1339.9780,0.122289
1341.8416,0.122457
1343.7053,0.121752
1345.5690,0.122006
1347.4326,0.122782
1349.2963,0.123972
1351.1600,0.125361
1353.0236,0.127086
1354.8873,0.129674
1356.7510,0.132254
1358.6146,0.134272
1360.4783,0.137419
1362.3420,0.143461
1364.2056,0.148599
1366.0693,0.150551
1367.9330,0.154191
1369.7967,0.158874
1371.6603,0.162496
1373.5240,0.168407
1375.3877,0.175389
1377.2513,0.179229
1379.1150,0.184122
1380.9787,0.190722
1382.8423,0.197194
1384.7060,0.203970
1386.5697,0.213439
1388.4333,0.224002
1390.2970,0.228454
1392.1607,0.230161
1394.0244,0.231121
1395.8880,0.226391
1397.7517,0.217082
1399.6154,0.205856
1401.4790,0.194373
1403.3427,0.184314
1405.2064,0.169936
1407.0700,0.150726
1408.9337,0.132476
1410.7974,0.116058
1412.6610,0.104188
1414.5247,0.098410
1416.3884,0.097897
1418.2520,0.103555
1420.1157,0.113100
1421.9794,0.117050
1423.8431,0.115374
1425.7067,0.106781
1427.5704,0.097401
1429.4341,0.092473
1431.2977,0.091038
1433.1614,0.090969
1435.0251,0.093091
1436.8887,0.098486
1438.7524,0.101056
1440.6161,0.101190
1442.4797,0.102510
1444.3434,0.103732
1446.2071,0.104919
1448.0707,0.105743
1449.9344,0.103630
1451.7981,0.099738
1453.6618,0.095981
1455.5254,0.095562
1457.3891,0.101050
1459.2528,0.101967
1461.1164,0.098692
1462.9801,0.098020
1464.8438,0.099107
1466.7074,0.098005
1468.5711,0.094854
1470.4348,0.093554
1472.2984,0.095455
1474.1621,0.097243
1476.0258,0.096236
1477.8895,0.095404
1479.7531,0.095053
1481.6168,0.095880
1483.4805,0.096151
1485.3441,0.096354
1487.2078,0.098328
1489.0715,0.102932
1490.9351,0.106542
1492.7988,0.105416
1494.6625,0.105364
1496.5261,0.110055
1498.3898,0.114479
1500.2535,0.114931
1502.1171,0.113912
1503.9808,0.113501
1505.8445,0.118414
1507.7082,0.131998
1509.5718,0.130176
1511.4355,0.128062
1513.2992,0.128246
1515.1628,0.129603
1517.0265,0.132375
1518.8902,0.133966
1520.7538,0.136512
1522.6175,0.140950
1524.4812,0.140624
1526.3448,0.142032
1528.2085,0.142941
1530.0722,0.141924
1531.9359,0.143082
1533.7995,0.146697
1535.6632,0.145707
1537.5269,0.144318
1539.3905,0.149502
1541.2542,0.159215
1543.1179,0.159109
1544.9815,0.159634
1546.8452,0.159268
1548.7089,0.159966
1550.5725,0.162467
1552.4362,0.163598
1554.2999,0.164333
1556.1635,0.166270
1558.0272,0.173277
1559.8909,0.188973
1561.7546,0.181391
1563.6182,0.178386
1565.4819,0.180054
1567.3456,0.182241
1569.2092,0.186626
1571.0729,0.190823
1572.9366,0.190168
1574.8002,0.193348
1576.6639,0.201381
1578.5276,0.203345
1580.3912,0.202967
1582.2549,0.205090
1584.1186,0.206840
1585.9822,0.208262
1587.8459,0.209025
1589.7096,0.209146
1591.5733,0.208534
1593.4369,0.207653
1595.3006,0.206209
1597.1643,0.203836
1599.0279,0.200992
1600.8916,0.198415
1602.7553,0.196117
1604.6189,0.193959
1606.4826,0.192326
1608.3463,0.191338
1610.2099,0.189803
1612.0736,0.186906
1613.9373,0.183871
1615.8010,0.181139
1617.6646,0.174473
1619.5283,0.166490
1621.3920,0.161527
1623.2556,0.155380
1625.1193,0.147155
1626.9830,0.139672
1628.8466,0.130522
1630.7103,0.120855
1632.5740,0.113483
1634.4376,0.107459
1636.3013,0.100304
1638.1650,0.094330
1640.0286,0.092464
1641.8923,0.091267
1643.7560,0.091477
1645.6197,0.093618
1647.4833,0.096897
1649.3470,0.096847
1651.2107,0.098400
1653.0743,0.104029
1654.9380,0.106443
1656.8017,0.103976
1658.6653,0.103411
1660.5290,0.102848
1662.3927,0.101517
1664.2563,0.098315
1666.1200,0.095416
1667.9837,0.093387
1669.8474,0.091662
1671.7110,0.089562
1673.5747,0.089195
1675.4384,0.090318
1677.3020,0.091897
1679.1657,0.093347
1681.0294,0.096561
1682.8930,0.100858
1684.7567,0.105660
1686.6204,0.104861
1688.4840,0.102839
1690.3477,0.099866
1692.2114,0.095577
1694.0750,0.091897
1695.9387,0.087940
1697.8024,0.082436
1699.6661,0.079031
1701.5297,0.070300
1703.3934,0.064183
1705.2571,0.057441
1707.1207,0.048223
1708.9844,0.041677
1710.8481,0.037154
1712.7117,0.033571
1714.5754,0.031459
1716.4391,0.029473
1718.3027,0.027927
1720.1664,0.026162
1722.0301,0.025373
1723.8937,0.023895
1725.7574,0.021964
1727.6211,0.020104
1729.4848,0.018705
1731.3484,0.017211
1733.2121,0.016507
1735.0758,0.014610
1736.9394,0.014197
1738.8031,0.014160
1740.6668,0.013903
1742.5304,0.013376
1744.3941,0.013150
1746.2578,0.012780
1748.1214,0.012663
1749.9851,0.012170
1751.8488,0.011698
1753.7125,0.011338
1755.5761,0.011567
1757.4398,0.011477
1759.3035,0.011583
1761.1671,0.011543
1763.0308,0.011381
1764.8945,0.010929
1766.7581,0.011101
1768.6218,0.011113
1770.4855,0.011257
1772.3491,0.010904
1774.2128,0.010799
1776.0765,0.010854
1777.9401,0.011006
1779.8038,0.010986
1781.6675,0.011162
1783.5312,0.011167
1785.3948,0.011182
1787.2585,0.011096
1789.1222,0.011103
1790.9858,0.011119
1792.8495,0.011105
1794.7132,0.010937
1796.5768,0.011099
1798.4405,0.011169
1800.3042,0.011357
1802.1678,0.011280
1804.0315,0.011306
1805.8952,0.011333
1807.7589,0.011541
1809.6225,0.011545
1811.4862,0.011562
1813.3499,0.011351
1815.2135,0.011404
1817.0772,0.011410
1818.9409,0.011537
1820.8045,0.011427
1822.6682,0.011452
1824.5319,0.011382
1826.3955,0.011245
1828.2592,0.011043
1830.1229,0.011023
1831.9865,0.010980
1833.8502,0.011242
1835.7139,0.011223
1837.5776,0.011082
1839.4412,0.010994
1841.3049,0.011310
1843.1686,0.011294
1845.0322,0.011358
1846.8959,0.011395
1848.7596,0.011267
1850.6232,0.010993
1852.4869,0.011264
1854.3506,0.011298
1856.2142,0.011361
1858.0779,0.011395
1859.9416,0.011426
1861.8052,0.011095
1863.6689,0.011170
1865.5326,0.011418
1867.3963,0.011592
1869.2599,0.011442
1871.1236,0.011512
1872.9873,0.011394
1874.8509,0.011486
1876.7146,0.011196
1878.5783,0.011218
1880.4419,0.011178
1882.3056,0.011459
1884.1693,0.011366
1886.0329,0.011420
1887.8966,0.011533
1889.7603,0.011235
1891.6240,0.010712
1893.4876,0.011249
1895.3513,0.011431
1897.2150,0.011199
1899.0786,0.011070
1900.9423,0.011275
1902.8060,0.011210
1904.6696,0.011414
1906.5333,0.011092
1908.3970,0.011357
1910.2606,0.011454
1912.1243,0.011318
1913.9880,0.011301
1915.8516,0.011428
1917.7153,0.011057
1919.5790,0.011275
1921.4427,0.011377
1923.3063,0.011362
1925.1700,0.010625
1927.0337,0.010690
1928.8973,0.010814
1930.7610,0.010805
1932.6247,0.010664
1934.4883,0.011087
1936.3520,0.011034
1938.2157,0.011020
1940.0793,0.010338
1941.9430,0.010352
1943.8067,0.010036
1945.6704,0.009791
1947.5340,0.008997
1949.3977,0.009079
1951.2614,0.009050
1953.1250,0.008918
1954.9887,0.008434
1956.8524,0.008312
1958.7160,0.007962
1960.5797,0.007928
1962.4434,0.006877
1964.3070,0.005870
1966.1707,0.005615
1968.0344,0.006165
1969.8980,0.004479
1971.7617,0.004637
1973.6254,0.004648
1975.4891,0.005008
1977.3527,0.004489
1979.2164,0.006827
1981.0801,0.008222
1982.9437,0.008110
1984.8074,0.007543
1986.6711,0.007788
1988.5347,0.007837
1990.3984,0.008564
1992.2621,0.007620
1994.1257,0.008089
1995.9894,0.007830
1997.8531,0.007739
1999.7167,0.007311
2001.5804,0.008251
2003.4441,0.008446
2005.3078,0.007508
2007.1714,0.006120
2009.0351,0.006510
2010.8988,0.006414
2012.7624,0.007075
2014.6261,0.005750
2016.4898,0.005668
2018.3534,0.005699
2020.2171,0.004607
2022.0808,0.003515
2023.9444,0.005186
2025.8081,0.005730
2027.6718,0.005871
2029.5355,0.005260
2031.3991,0.006661
2033.2628,0.006889
2035.1265,0.007525
2036.9901,0.008034
2038.8538,0.007751
2040.7175,0.006502
2042.5811,0.007302
2044.4448,0.008018
2046.3085,0.009243
2048.1721,0.009460
2050.0358,0.010124
2051.8995,0.010445
2053.7631,0.011122
2055.6268,0.011229
2057.4905,0.011145
2059.3542,0.011305
2061.2178,0.012794
2063.0815,0.012753
2064.9452,0.012875
2066.8088,0.012772
2068.6725,0.012862
2070.5362,0.012763
2072.3998,0.012875
2074.2635,0.013134
2076.1272,0.013934
2077.9908,0.014341
2079.8545,0.014788
2081.7182,0.015042
2083.5819,0.014759
2085.4455,0.014255
2087.3092,0.014582
2089.1729,0.014693
2091.0365,0.015463
2092.9002,0.015083
2094.7639,0.014364
2096.6275,0.014824
2098.4912,0.015704
2100.3549,0.015425
2102.2185,0.015494
2104.0822,0.015347
2105.9459,0.015084
2107.8095,0.014905
2109.6732,0.015278
2111.5369,0.015622
2113.4006,0.015921
2115.2642,0.015614
2117.1279,0.015791
2118.9916,0.016019
2120.8552,0.016010
2122.7189,0.015516
2124.5826,0.015844
2126.4462,0.015499
2128.3099,0.014851
2130.1736,0.014480
2132.0372,0.014136
2133.9009,0.013878
2135.7646,0.014240
2137.6282,0.013475
2139.4919,0.013450
2141.3556,0.012873
2143.2193,0.012294
2145.0829,0.012277
2146.9466,0.011971
2148.8103,0.011165
2150.6739,0.010628
2152.5376,0.009227
2154.4013,0.009818
2156.2649,0.009044
2158.1286,0.008988
2159.9923,0.008125
2161.8559,0.007177
2163.7196,0.008317
2165.5833,0.009496
2167.4470,0.009241
2169.3106,0.009661
2171.1743,0.009318
2173.0380,0.009365
2174.9016,0.009335
2176.7653,0.011376
2178.6290,0.011548
2180.4926,0.011547
2182.3563,0.011826
2184.2200,0.011684
2186.0836,0.011052
2187.9473,0.012107
2189.8110,0.012736
2191.6746,0.013176
2193.5383,0.013006
2195.4020,0.013675
2197.2657,0.013867
2199.1293,0.013759
2200.9930,0.013156
2202.8567,0.014175
2204.7203,0.014916
2206.5840,0.015164
2208.4477,0.014675
2210.3113,0.014846
2212.1750,0.015213
2214.0387,0.015769
2215.9023,0.015695
2217.7660,0.015478
2219.6297,0.015313
2221.4934,0.015681
2223.3570,0.016063
2225.2207,0.016915
2227.0844,0.017653
2228.9480,0.018344
2230.8117,0.017616
2232.6754,0.017288
2234.5390,0.017010
2236.4027,0.017405
2238.2664,0.017736
2240.1300,0.017504
2241.9937,0.017072
2243.8574,0.018192
2245.7210,0.018631
2247.5847,0.018136
2249.4484,0.017873
2251.3121,0.018249
2253.1757,0.018455
2255.0394,0.018346
2256.9031,0.018278
2258.7667,0.019190
2260.6304,0.019614
2262.4941,0.019847
2264.3577,0.020042
2266.2214,0.020518
2268.0851,0.020402
2269.9487,0.020785
2271.8124,0.020926
2273.6761,0.020898
2275.5397,0.021423
2277.4034,0.022206
2279.2671,0.022705
2281.1308,0.022896
2282.9944,0.022774
2284.8581,0.023223
2286.7218,0.023582
2288.5854,0.023543
2290.4491,0.023497
2292.3128,0.023705
2294.1764,0.023315
2296.0401,0.023234
2297.9038,0.023324
2299.7674,0.023157
2301.6311,0.023310
2303.4948,0.023774
2305.3585,0.023935
2307.2221,0.024003
2309.0858,0.023936
2310.9495,0.024154
2312.8131,0.024259
2314.6768,0.024457
2316.5405,0.024496
2318.4041,0.024247
2320.2678,0.024258
2322.1315,0.024614
2323.9951,0.024470
2325.8588,0.023944
2327.7225,0.023191
2329.5861,0.022825
2331.4498,0.022852
2333.3135,0.022977
2335.1772,0.023114
2337.0408,0.023051
2338.9045,0.023006
2340.7682,0.022906
2342.6318,0.023089
2344.4955,0.023495
2346.3592,0.023486
2348.2228,0.023367
2350.0865,0.022992
2351.9502,0.022872
2353.8138,0.022822
2355.6775,0.022806
2357.5412,0.022626
2359.4049,0.022324
2361.2685,0.022547
2363.1322,0.022951
2364.9959,0.022747
2366.8595,0.022682
2368.7232,0.022737
2370.5869,0.023154
2372.4505,0.023728
2374.3142,0.023900
2376.1779,0.023687
2378.0415,0.023897
2379.9052,0.024152
2381.7689,0.024059
2383.6325,0.023926
2385.4962,0.023903
2387.3599,0.023865
2389.2236,0.023604
2391.0872,0.023793
2392.9509,0.024227
2394.8146,0.024142
2396.6782,0.023829
2398.5419,0.024077
2400.4056,0.024567
2402.2692,0.024769
2404.1329,0.024534
2405.9966,0.024401
2407.8602,0.024588
2409.7239,0.024648
2411.5876,0.024877
2413.4512,0.024971
2415.3149,0.024793
2417.1786,0.024903
2419.0423,0.024859
2420.9059,0.024914
2422.7696,0.025099
2424.6333,0.025022
2426.4969,0.025445
2428.3606,0.025885
2430.2243,0.025937
2432.0879,0.025706
2433.9516,0.025408
2435.8153,0.025479
2437.6789,0.025435
2439.5426,0.025556
2441.4063,0.025971
2443.2700,0.025863
2445.1336,0.025384
2446.9973,0.025519
2448.8610,0.025873
2450.7246,0.025867
2452.5883,0.025706
2454.4520,0.025609
2456.3156,0.025554
2458.1793,0.025591
2460.0430,0.025777
2461.9066,0.025303
2463.7703,0.025350
2465.6340,0.025511
2467.4976,0.025391
2469.3613,0.025484
2471.2250,0.025568
2473.0887,0.025485
2474.9523,0.025331
2476.8160,0.025201
2478.6797,0.025834
2480.5433,0.026119
2482.4070,0.025794
2484.2707,0.025972
2486.1343,0.025985
2487.9980,0.026111
2489.8617,0.026730
2491.7253,0.026667
2493.5890,0.026576
2495.4527,0.026919
2497.3164,0.027023
2499.1800,0.026564
2501.0437,0.026720
2502.9074,0.027188
2504.7710,0.027021
2506.6347,0.026885
2508.4984,0.027231
2510.3620,0.027806
2512.2257,0.027730
2514.0894,0.027225
2515.9530,0.027369
2517.8167,0.027724
2519.6804,0.028194
2521.5440,0.028375
2523.4077,0.028100
2525.2714,0.028453
2527.1351,0.028725
