Wavenumber,Intensity
650.4205,0.208101
652.2841,0.203421
654.1478,0.200611
656.0115,0.199513
657.8751,0.200188
659.7388,0.201086
661.6025,0.200098
663.4661,0.199967
665.3298,0.201054
667.1935,0.203011
669.0571,0.204402
670.9208,0.198776
672.7845,0.194703
674.6481,0.191726
676.5118,0.189364
678.3755,0.187318
680.2392,0.186139
682.1028,0.184391
683.9665,0.183041
685.8302,0.182032
687.6938,0.181169
689.5575,0.178444
691.4212,0.177691
693.2848,0.177212
695.1485,0.176105
697.0122,0.174898
698.8758,0.175212
700.7395,0.175416
702.6032,0.174803
704.4669,0.172962
706.3305,0.168724
708.1942,0.162030
710.0579,0.155667
711.9215,0.149542
713.7852,0.143602
715.6489,0.138343
717.5125,0.134045
719.3762,0.129905
721.2399,0.125436
723.1035,0.121170
724.9672,0.118360
726.8309,0.115412
728.6945,0.111922
730.5582,0.109100
732.4219,0.106609
734.2856,0.103563
736.1492,0.101354
738.0129,0.100073
739.8766,0.099896
741.7402,0.101046
743.6039,0.102498
745.4676,0.103153
747.3312,0.102729
749.1949,0.101928
751.0586,0.101496
752.9222,0.100837
754.7859,0.099653
756.6496,0.098355
758.5132,0.097195
760.3769,0.096094
762.2406,0.095341
764.1043,0.095179
765.9679,0.094945
767.8316,0.094302
769.6953,0.094277
771.5589,0.094503
773.4226,0.094830
775.2863,0.095308
777.1499,0.095632
779.0136,0.096241
780.8773,0.097078
782.7409,0.097584
784.6046,0.098594
786.4683,0.099607
788.3320,0.100077
790.1956,0.100609
792.0593,0.101272
793.9230,0.102290
795.7866,0.104019
797.6503,0.105660
799.5140,0.106696
801.3776,0.107145
803.2413,0.107219
805.1050,0.106825
806.9686,0.106089
808.8323,0.104549
810.6960,0.102458
812.5596,0.100064
814.4233,0.097365
816.2870,0.094991
818.1507,0.092900
820.0143,0.090888
821.8780,0.089265
823.7417,0.088105
825.6053,0.087909
827.4690,0.089129
829.3327,0.089737
831.1963,0.085822
833.0600,0.077734
834.9237,0.070861
836.7873,0.067630
838.6510,0.066634
840.5147,0.066347
842.3784,0.065983
844.2420,0.065790
846.1057,0.065591
847.9694,0.065296
849.8330,0.065386
851.6967,0.065671
853.5604,0.065691
855.4240,0.065413
857.2877,0.065322
859.1514,0.065379
861.0150,0.065464
862.8787,0.065666
864.7424,0.065781
866.6060,0.065822
868.4697,0.066029
870.3334,0.066311
872.1971,0.066444
874.0607,0.066387
875.9244,0.066472
877.7881,0.066661
879.6517,0.066705
881.5154,0.066849
883.3791,0.067165
885.2427,0.067230
887.1064,0.067285
888.9701,0.067479
890.8337,0.067845
892.6974,0.068621
894.5611,0.069566
896.4247,0.070449
898.2884,0.071454
900.1521,0.072873
902.0158,0.074770
903.8794,0.077043
905.7431,0.079702
907.6068,0.082890
909.4704,0.086897
911.3341,0.092127
913.1978,0.098391
915.0614,0.102066
916.9251,0.097390
918.7888,0.086604
920.6524,0.077822
922.5161,0.073854
924.3798,0.072775
926.2435,0.072770
928.1071,0.073144
929.9708,0.073635
931.8345,0.074208
933.6981,0.075017
935.5618,0.075653
937.4255,0.076089
939.2891,0.076839
941.1528,0.077688
943.0165,0.078404
944.8801,0.079317
946.7438,0.080217
948.6075,0.081062
950.4711,0.082144
952.3348,0.083329
954.1985,0.084412
956.0622,0.085507
957.9258,0.086862
959.7895,0.088370
961.6532,0.089882
963.5168,0.091530
965.3805,0.093342
967.2442,0.095509
969.1078,0.097995
970.9715,0.100596
972.8352,0.103548
974.6988,0.107762
976.5625,0.114617
978.4262,0.126128
980.2899,0.142486
982.1535,0.150090
984.0172,0.132847
985.8809,0.108851
987.7445,0.098287
989.6082,0.097582
991.4719,0.099250
993.3355,0.101210
995.1992,0.103331
997.0629,0.105715
998.9265,0.108175
1000.7902,0.110527
1002.6539,0.112909
1004.5175,0.115534
1006.3812,0.118351
1008.2449,0.121039
1010.1086,0.123222
1011.9722,0.125000
1013.8359,0.126439
1015.6996,0.127296
1017.5632,0.127449
1019.4269,0.127182
1021.2906,0.126704
1023.1542,0.125987
1025.0179,0.125319
1026.8816,0.124934
1028.7452,0.124819
1030.6089,0.124969
1032.4726,0.125181
1034.3362,0.125475
1036.1999,0.126061
1038.0636,0.127050
1039.9273,0.128422
1041.7909,0.130286
1043.6546,0.132501
1045.5183,0.134726
1047.3819,0.136165
1049.2456,0.135206
1051.1093,0.130503
1052.9729,0.123125
1054.8366,0.116075
1056.7003,0.111453
1058.5639,0.109381
1060.4276,0.109154
1062.2913,0.109809
1064.1550,0.110589
1066.0186,0.111450
1067.8823,0.112525
1069.7460,0.113794
1071.6096,0.115314
1073.4733,0.117054
1075.3370,0.118857
1077.2006,0.120676
1079.0643,0.122463
1080.9280,0.124065
1082.7916,0.125524
1084.6553,0.126933
1086.5190,0.128417
1088.3826,0.130052
1090.2463,0.132074
1092.1100,0.134667
1093.9737,0.137810
1095.8373,0.141454
1097.7010,0.145548
1099.5647,0.149851
1101.4283,0.154185
1103.2920,0.157965
1105.1557,0.160196
1107.0193,0.159732
1108.8830,0.155572
1110.7467,0.147675
1112.6103,0.137524
1114.4740,0.127148
1116.3377,0.117936
1118.2014,0.110438
1120.0650,0.104659
1121.9287,0.100469
1123.7924,0.097587
1125.6560,0.095374
1127.5197,0.093297
1129.3834,0.091313
1131.2470,0.089641
1133.1107,0.088267
1134.9744,0.087121
1136.8380,0.086236
1138.7017,0.085604
1140.5654,0.085198
1142.4290,0.085008
1144.2927,0.085083
1146.1564,0.085270
1148.0201,0.085378
1149.8837,0.085597
1151.7474,0.086080
1153.6111,0.086697
1155.4747,0.087382
1157.3384,0.088188
1159.2021,0.089092
1161.0657,0.090214
1162.9294,0.091516
1164.7931,0.092949
1166.6567,0.094687
1168.5204,0.096840
1170.3841,0.099143
1172.2477,0.100592
1174.1114,0.099959
1175.9751,0.097002
1177.8388,0.093054
1179.7024,0.089796
1181.5661,0.087915
1183.4298,0.087125
1185.2934,0.086957
1187.1571,0.087169
1189.0208,0.087515
1190.8844,0.087898
1192.7481,0.088301
1194.6118,0.088660
1196.4754,0.089014
1198.3391,0.089373
1200.2028,0.089672
1202.0665,0.089850
1203.9301,0.089801
1205.7938,0.089665
1207.6575,0.089578
1209.5211,0.089518
1211.3848,0.089638
1213.2485,0.090029
1215.1121,0.090558
1216.9758,0.091280
1218.8395,0.092150
1220.7031,0.093053
1222.5668,0.093931
1224.4305,0.094755
1226.2941,0.095483
1228.1578,0.096116
1230.0215,0.096681
1231.8852,0.097129
1233.7488,0.097517
1235.6125,0.097833
1237.4762,0.098077
1239.3398,0.098259
1241.2035,0.098308
1243.0672,0.098318
1244.9308,0.098241
1246.7945,0.098075
1248.6582,0.097937
1250.5218,0.097836
1252.3855,0.097736
1254.2492,0.097683
1256.1129,0.097639
1257.9765,0.097674
1259.8402,0.097858
1261.7039,0.098112
1263.5675,0.098447
1265.4312,0.098813
1267.2949,0.098988
1269.1585,0.098916
1271.0222,0.098759
1272.8859,0.098592
1274.7495,0.098613
1276.6132,0.099033
1278.4769,0.099688
1280.3405,0.100430
1282.2042,0.101284
1284.0679,0.102138
1285.9316,0.103139
1287.7952,0.104570
1289.6589,0.106253
1291.5226,0.108205
1293.3862,0.110687
1295.2499,0.113944
1297.1136,0.118023
1298.9772,0.122818
1300.8409,0.128551
1302.7046,0.134876
1304.5682,0.140004
1306.4319,0.140868
1308.2956,0.133709
1310.1592,0.118889
1312.0229,0.103580
1313.8866,0.093515
1315.7503,0.089523
1317.6139,0.089538
1319.4776,0.091195
1321.3413,0.092923
1323.2049,0.094651
1325.0686,0.096643
1326.9323,0.098795
1328.7959,0.100973
1330.6596,0.102976
1332.5233,0.104379
1334.3869,0.104964
1336.2506,0.105266
1338.1143,0.106479
1339.9780,0.108054
1341.8416,0.107616
1343.7053,0.106563
1345.5690,0.106330
1347.4326,0.106568
1349.2963,0.107212
1351.1600,0.108015
1353.0236,0.109212
1354.8873,0.111152
1356.7510,0.112948
1358.6146,0.114305
1360.4783,0.116811
1362.3420,0.121953
1364.2056,0.125801
1366.0693,0.126886
1367.9330,0.129819
1369.7967,0.133476
1371.6603,0.136119
1373.5240,0.141364
1375.3877,0.147418
1377.2513,0.150271
1379.1150,0.154170
1380.9787,0.159321
1382.8423,0.164054
1384.7060,0.169276
1386.5697,0.177305
1388.4333,0.185910
1390.2970,0.188782
1392.1607,0.190065
1394.0244,0.191892
1395.8880,0.189225
1397.7517,0.182247
1399.6154,0.174247
1401.4790,0.165430
1403.3427,0.158092
1405.2064,0.148390
1407.0700,0.134274
1408.9337,0.120310
1410.7974,0.107782
1412.6610,0.098532
1414.5247,0.093680
1416.3884,0.093167
1418.2520,0.098320
1420.1157,0.105642
1421.9794,0.107349
1423.8431,0.105837
1425.7067,0.099511
1427.5704,0.092769
1429.4341,0.089883
1431.2977,0.089316
1433.1614,0.089282
1435.0251,0.091391
1436.8887,0.096591
1438.7524,0.098106
1440.6161,0.097604
1442.4797,0.098677
1444.3434,0.099603
1446.2071,0.100540
1448.0707,0.101551
1449.9344,0.099828
1451.7981,0.096388
1453.6618,0.092995
1455.5254,0.092660
1457.3891,0.097768
1459.2528,0.097111
1461.1164,0.092976
1462.9801,0.092022
1464.8438,0.093078
1466.7074,0.091660
1468.5711,0.088359
1470.4348,0.087208
1472.2984,0.089508
1474.1621,0.091050
1476.0258,0.089707
1477.8895,0.088583
1479.7531,0.088150
1481.6168,0.089070
1483.4805,0.089333
1485.3441,0.089533
1487.2078,0.091660
1489.0715,0.096520
1490.9351,0.100296
1492.7988,0.098959
1494.6625,0.098898
1496.5261,0.103720
1498.3898,0.108255
1500.2535,0.108518
1502.1171,0.107440
1503.9808,0.107218
1505.8445,0.112950
1507.7082,0.127230
1509.5718,0.124232
1511.4355,0.121780
1513.2992,0.121658
1515.1628,0.122890
1517.0265,0.126061
1518.8902,0.127042
1520.7538,0.129361
1522.6175,0.133669
1524.4812,0.132501
1526.3448,0.133292
1528.2085,0.133854
1530.0722,0.132312
1531.9359,0.133368
1533.7995,0.136985
1535.6632,0.134908
1537.5269,0.133005
1539.3905,0.139056
1541.2542,0.147958
1543.1179,0.145309
1544.9815,0.144569
1546.8452,0.143238
1548.7089,0.143266
1550.5725,0.145171
1552.4362,0.145393
1554.2999,0.145321
1556.1635,0.146126
1558.0272,0.153124
1559.8909,0.167912
1561.7546,0.158003
1563.6182,0.154311
1565.4819,0.155322
1567.3456,0.156585
1569.2092,0.160199
1571.0729,0.162841
1572.9366,0.161228
1574.8002,0.164257
1576.6639,0.172267
1578.5276,0.173009
1580.3912,0.171704
1582.2549,0.173432
1584.1186,0.175283
1585.9822,0.176344
1587.8459,0.176998
1589.7096,0.177542
1591.5733,0.177488
1593.4369,0.177121
1595.3006,0.176539
1597.1643,0.175322
1599.0279,0.173698
1600.8916,0.172300
1602.7553,0.171133
1604.6189,0.170004
1606.4826,0.169258
1608.3463,0.169229
1610.2099,0.168860
1612.0736,0.166861
1613.9373,0.164621
1615.8010,0.163969
1617.6646,0.160821
1619.5283,0.153904
1621.3920,0.150000
1623.2556,0.146746
1625.1193,0.140798
1626.9830,0.134728
1628.8466,0.127907
1630.7103,0.120496
1632.5740,0.114669
1634.4376,0.110367
1636.3013,0.105738
1638.1650,0.100016
1640.0286,0.097449
1641.8923,0.096034
1643.7560,0.095670
1645.6197,0.097192
1647.4833,0.099498
1649.3470,0.097648
1651.2107,0.098237
1653.0743,0.104732
1654.9380,0.105534
1656.8017,0.100816
1658.6653,0.099299
1660.5290,0.098288
1662.3927,0.097034
1664.2563,0.093760
1666.1200,0.090545
1667.9837,0.088758
1669.8474,0.086976
1671.7110,0.083718
1673.5747,0.082559
1675.4384,0.083290
1677.3020,0.083329
1679.1657,0.083320
1681.0294,0.084897
1682.8930,0.087772
1684.7567,0.091485
1686.6204,0.089186
1688.4840,0.086708
1690.3477,0.083817
1692.2114,0.079615
1694.0750,0.076251
1695.9387,0.072688
1697.8024,0.067088
1699.6661,0.064196
1701.5297,0.057119
1703.3934,0.051727
1705.2571,0.046484
1707.1207,0.039301
1708.9844,0.034379
1710.8481,0.030907
1712.7117,0.028153
1714.5754,0.026594
1716.4391,0.025205
1718.3027,0.023866
1720.1664,0.022176
1722.0301,0.021536
1723.8937,0.020290
1725.7574,0.018751
1727.6211,0.017342
1729.4848,0.016398
1731.3484,0.015407
1733.2121,0.015212
1735.0758,0.013565
1736.9394,0.012843
1738.8031,0.013057
1740.6668,0.012880
1742.5304,0.012358
1744.3941,0.012120
1746.2578,0.011903
1748.1214,0.012064
1749.9851,0.011824
1751.8488,0.011291
1753.7125,0.010873
1755.5761,0.011288
1757.4398,0.011155
1759.3035,0.010941
1761.1671,0.010941
1763.0308,0.010902
1764.8945,0.010627
1766.7581,0.010835
1768.6218,0.010778
1770.4855,0.010880
1772.3491,0.010839
1774.2128,0.010670
1776.0765,0.010537
1777.9401,0.010519
1779.8038,0.010597
1781.6675,0.010613
1783.5312,0.010553
1785.3948,0.010646
1787.2585,0.010659
1789.1222,0.010840
1790.9858,0.011169
1792.8495,0.011237
1794.7132,0.010673
1796.5768,0.010629
1798.4405,0.010828
1800.3042,0.010938
1802.1678,0.010768
1804.0315,0.010761
1805.8952,0.010852
1807.7589,0.011065
1809.6225,0.011137
1811.4862,0.011004
1813.3499,0.010604
1815.2135,0.010670
1817.0772,0.010865
1818.9409,0.010987
1820.8045,0.010902
1822.6682,0.011069
1824.5319,0.011168
1826.3955,0.011140
1828.2592,0.011138
1830.1229,0.011149
1831.9865,0.010813
1833.8502,0.010920
1835.7139,0.010906
1837.5776,0.010754
1839.4412,0.010604
1841.3049,0.010855
1843.1686,0.011300
1845.0322,0.011188
1846.8959,0.010588
1848.7596,0.010723
1850.6232,0.010989
1852.4869,0.011141
1854.3506,0.010905
1856.2142,0.010915
1858.0779,0.011028
1859.9416,0.011163
1861.8052,0.011086
1863.6689,0.011020
1865.5326,0.011024
1867.3963,0.011465
1869.2599,0.011378
1871.1236,0.011028
1872.9873,0.010656
1874.8509,0.010790
1876.7146,0.010855
1878.5783,0.011112
1880.4419,0.011299
1882.3056,0.011432
1884.1693,0.011163
1886.0329,0.010882
1887.8966,0.010920
1889.7603,0.011189
1891.6240,0.011011
1893.4876,0.011244
1895.3513,0.010936
1897.2150,0.011030
1899.0786,0.011229
1900.9423,0.011050
1902.8060,0.010876
1904.6696,0.010851
1906.5333,0.010892
1908.3970,0.011358
1910.2606,0.011462
1912.1243,0.011454
1913.9880,0.011234
1915.8516,0.011328
1917.7153,0.010973
1919.5790,0.010604
1921.4427,0.010572
1923.3063,0.010712
1925.1700,0.009989
1927.0337,0.010207
1928.8973,0.010668
1930.7610,0.010819
1932.6247,0.010758
1934.4883,0.010850
1936.3520,0.010647
1938.2157,0.010284
1940.0793,0.009975
1941.9430,0.010502
1943.8067,0.010251
1945.6704,0.009945
1947.5340,0.009505
1949.3977,0.009096
1951.2614,0.008617
1953.1250,0.009145
1954.9887,0.008677
1956.8524,0.008163
1958.7160,0.007162
1960.5797,0.006393
1962.4434,0.006177
1964.3070,0.006585
1966.1707,0.005185
1968.0344,0.004772
1969.8980,0.005013
1971.7617,0.005979
1973.6254,0.005842
1975.4891,0.005252
1977.3527,0.004420
1979.2164,0.006057
1981.0801,0.006648
1982.9437,0.007206
1984.8074,0.007270
1986.6711,0.006472
1988.5347,0.005915
1990.3984,0.006984
1992.2621,0.006711
1994.1257,0.007498
1995.9894,0.008293
1997.8531,0.008412
1999.7167,0.007838
2001.5804,0.008648
2003.4441,0.008262
2005.3078,0.007169
2007.1714,0.006104
2009.0351,0.006291
2010.8988,0.006334
2012.7624,0.006638
2014.6261,0.005651
2016.4898,0.006328
2018.3534,0.005191
2020.2171,0.004320
2022.0808,0.004537
2023.9444,0.005578
2025.8081,0.005133
2027.6718,0.004271
2029.5355,0.004271
2031.3991,0.006330
2033.2628,0.006421
2035.1265,0.006283
2036.9901,0.006355
2038.8538,0.007227
2040.7175,0.007486
2042.5811,0.007567
2044.4448,0.008487
2046.3085,0.009699
2048.1721,0.009413
2050.0358,0.009462
2051.8995,0.009717
2053.7631,0.010771
2055.6268,0.010948
2057.4905,0.011132
2059.3542,0.011556
2061.2178,0.011909
2063.0815,0.011740
2064.9452,0.011790
2066.8088,0.011918
2068.6725,0.012248
2070.5362,0.011915
2072.3998,0.012090
2074.2635,0.012091
2076.1272,0.012460
2077.9908,0.012898
2079.8545,0.013285
2081.7182,0.013420
2083.5819,0.014169
2085.4455,0.014191
2087.3092,0.014029
2089.1729,0.013490
2091.0365,0.013305
2092.9002,0.013994
2094.7639,0.013959
2096.6275,0.013173
2098.4912,0.013603
2100.3549,0.013469
2102.2185,0.013453
2104.0822,0.013729
2105.9459,0.014124
2107.8095,0.014157
2109.6732,0.014558
2111.5369,0.014421
2113.4006,0.013888
2115.2642,0.014291
2117.1279,0.014984
2118.9916,0.014766
2120.8552,0.014411
2122.7189,0.014063
2124.5826,0.014135
2126.4462,0.013663
2128.3099,0.013778
2130.1736,0.013369
2132.0372,0.013164
2133.9009,0.012656
2135.7646,0.012083
2137.6282,0.011611
2139.4919,0.011861
2141.3556,0.012182
2143.2193,0.011719
2145.0829,0.010440
2146.9466,0.010474
2148.8103,0.010450
2150.6739,0.009865
2152.5376,0.008000
2154.4013,0.006734
2156.2649,0.005565
2158.1286,0.006074
2159.9923,0.006498
2161.8559,0.007222
2163.7196,0.007126
2165.5833,0.007610
2167.4470,0.007894
2169.3106,0.008766
2171.1743,0.008582
2173.0380,0.008287
2174.9016,0.008361
2176.7653,0.008639
2178.6290,0.009361
2180.4926,0.010630
2182.3563,0.009945
2184.2200,0.009217
2186.0836,0.009371
2187.9473,0.009770
2189.8110,0.009972
2191.6746,0.010669
2193.5383,0.010696
2195.4020,0.011576
2197.2657,0.011788
2199.1293,0.011939
2200.9930,0.012252
2202.8567,0.012544
2204.7203,0.012974
2206.5840,0.013613
2208.4477,0.013725
2210.3113,0.014393
2212.1750,0.014360
2214.0387,0.013452
2215.9023,0.012254
2217.7660,0.013365
2219.6297,0.013999
2221.4934,0.014565
2223.3570,0.014283
2225.2207,0.014111
2227.0844,0.014317
2228.9480,0.014620
2230.8117,0.014678
2232.6754,0.015539
2234.5390,0.016240
2236.4027,0.015966
2238.2664,0.015373
2240.1300,0.015389
2241.9937,0.015675
2243.8574,0.016024
2245.7210,0.015602
2247.5847,0.016447
2249.4484,0.016458
2251.3121,0.016053
2253.1757,0.016787
2255.0394,0.017183
2256.9031,0.016696
2258.7667,0.016573
2260.6304,0.017251
2262.4941,0.017470
2264.3577,0.017139
2266.2214,0.017440
2268.0851,0.017837
2269.9487,0.018210
2271.8124,0.018321
2273.6761,0.018595
2275.5397,0.019024
2277.4034,0.019468
2279.2671,0.019636
2281.1308,0.020187
2282.9944,0.020292
2284.8581,0.020378
2286.7218,0.020343
2288.5854,0.020270
2290.4491,0.020388
2292.3128,0.020517
2294.1764,0.020320
2296.0401,0.020230
2297.9038,0.020506
2299.7674,0.021042
2301.6311,0.020998
2303.4948,0.020944
2305.3585,0.020925
2307.2221,0.021210
2309.0858,0.021374
2310.9495,0.021329
2312.8131,0.021141
2314.6768,0.021230
2316.5405,0.021287
2318.4041,0.021376
2320.2678,0.021481
2322.1315,0.021726
2323.9951,0.021701
2325.8588,0.021329
2327.7225,0.020848
2329.5861,0.020723
2331.4498,0.020565
2333.3135,0.020419
2335.1772,0.020686
2337.0408,0.020694
2338.9045,0.020066
2340.7682,0.020234
2342.6318,0.020879
2344.4955,0.021412
2346.3592,0.021056
2348.2228,0.020339
2350.0865,0.020242
2351.9502,0.020544
2353.8138,0.020628
2355.6775,0.020359
2357.5412,0.020080
2359.4049,0.020102
2361.2685,0.020324
2363.1322,0.020658
2364.9959,0.020756
2366.8595,0.020622
2368.7232,0.020970
2370.5869,0.021293
2372.4505,0.020733
2374.3142,0.020489
2376.1779,0.021008
2378.0415,0.021609
2379.9052,0.021928
2381.7689,0.021797
2383.6325,0.021484
2385.4962,0.021392
2387.3599,0.021346
2389.2236,0.021283
2391.0872,0.021127
2392.9509,0.021306
2394.8146,0.021595
2396.6782,0.021631
2398.5419,0.021442
2400.4056,0.021458
2402.2692,0.021559
2404.1329,0.021435
2405.9966,0.021377
2407.8602,0.021871
2409.7239,0.022204
2411.5876,0.021735
2413.4512,0.021462
2415.3149,0.021757
2417.1786,0.022352
2419.0423,0.022768
2420.9059,0.022819
2422.7696,0.022688
2424.6333,0.022477
2426.4969,0.022611
2428.3606,0.022233
2430.2243,0.021998
2432.0879,0.022226
2433.9516,0.022335
2435.8153,0.022290
2437.6789,0.022192
2439.5426,0.022468
2441.4063,0.022996
2443.2700,0.022946
2445.1336,0.022785
2446.9973,0.022943
2448.8610,0.023021
2450.7246,0.022721
2452.5883,0.022584
2454.4520,0.022580
2456.3156,0.022562
2458.1793,0.022514
2460.0430,0.022337
2461.9066,0.022288
2463.7703,0.022683
2465.6340,0.022667
2467.4976,0.022467
2469.3613,0.022552
2471.2250,0.022321
2473.0887,0.022287
2474.9523,0.022776
2476.8160,0.023163
2478.6797,0.023256
2480.5433,0.023118
2482.4070,0.023058
2484.2707,0.023232
2486.1343,0.023223
2487.9980,0.023223
2489.8617,0.023544
2491.7253,0.023824
2493.5890,0.023770
2495.4527,0.023892
2497.3164,0.023931
2499.1800,0.023959
2501.0437,0.023960
2502.9074,0.024116
2504.7710,0.023830
2506.6347,0.023676
2508.4984,0.023729
2510.3620,0.024141
2512.2257,0.024430
2514.0894,0.024561
2515.9530,0.024580
2517.8167,0.024676
2519.6804,0.024647
2521.5440,0.024753
2523.4077,0.025054
2525.2714,0.024964
2527.1351,0.025227
