Wavenumber,Intensity
650.4205,0.187074
652.2841,0.184520
654.1478,0.180672
656.0115,0.176164
657.8751,0.170278
659.7388,0.167954
661.6025,0.168584
663.4661,0.167848
665.3298,0.168116
667.1935,0.169035
669.0571,0.169868
670.9208,0.167814
672.7845,0.166528
674.6481,0.165756
676.5118,0.164790
678.3755,0.162603
680.2392,0.160981
682.1028,0.158139
683.9665,0.153993
685.8302,0.150809
687.6938,0.149105
689.5575,0.145773
691.4212,0.142913
693.2848,0.142321
695.1485,0.141587
697.0122,0.140155
698.8758,0.139430
700.7395,0.138974
702.6032,0.139399
704.4669,0.138234
706.3305,0.134860
708.1942,0.130505
710.0579,0.125341
711.9215,0.120044
713.7852,0.115877
715.6489,0.111700
717.5125,0.107884
719.3762,0.104141
721.2399,0.101161
723.1035,0.098062
724.9672,0.094651
726.8309,0.091318
728.6945,0.088705
730.5582,0.085729
732.4219,0.082446
734.2856,0.079893
736.1492,0.078117
738.0129,0.076700
739.8766,0.076483
741.7402,0.078259
743.6039,0.080595
745.4676,0.081710
747.3312,0.081610
749.1949,0.080990
751.0586,0.080710
752.9222,0.080737
754.7859,0.080283
756.6496,0.079786
758.5132,0.079316
760.3769,0.079341
762.2406,0.079551
764.1043,0.079736
765.9679,0.081103
767.8316,0.083389
769.6953,0.085906
771.5589,0.089477
773.4226,0.094301
775.2863,0.098216
777.1499,0.097786
779.0136,0.092135
780.8773,0.085619
782.7409,0.081705
784.6046,0.080654
786.4683,0.080797
788.3320,0.081278
790.1956,0.082545
792.0593,0.084918
793.9230,0.087581
795.7866,0.090016
797.6503,0.092124
799.5140,0.094835
801.3776,0.098167
803.2413,0.101869
805.1050,0.106899
806.9686,0.113316
808.8323,0.116892
810.6960,0.110134
812.5596,0.094736
814.4233,0.081625
816.2870,0.074912
818.1507,0.071825
820.0143,0.070025
821.8780,0.069070
823.7417,0.068943
825.6053,0.070101
827.4690,0.072154
829.3327,0.073391
831.1963,0.070429
833.0600,0.063232
834.9237,0.057595
836.7873,0.056050
838.6510,0.056916
840.5147,0.058757
842.3784,0.061043
844.2420,0.063608
846.1057,0.065474
847.9694,0.065081
849.8330,0.062365
851.6967,0.058540
853.5604,0.054553
855.4240,0.050976
857.2877,0.048095
859.1514,0.045988
861.0150,0.044873
862.8787,0.044400
864.7424,0.044215
866.6060,0.044378
868.4697,0.044825
870.3334,0.045129
872.1971,0.045319
874.0607,0.045810
875.9244,0.046367
877.7881,0.046725
879.6517,0.047252
881.5154,0.048046
883.3791,0.048669
885.2427,0.049410
887.1064,0.050322
888.9701,0.051334
890.8337,0.052725
892.6974,0.054392
894.5611,0.055941
896.4247,0.056906
898.2884,0.056921
900.1521,0.056148
902.0158,0.055547
903.8794,0.055992
905.7431,0.057877
907.6068,0.060957
909.4704,0.064728
911.3341,0.069362
913.1978,0.074844
915.0614,0.077820
916.9251,0.073009
918.7888,0.062845
920.6524,0.055499
922.5161,0.053483
924.3798,0.054217
926.2435,0.054008
928.1071,0.051197
929.9708,0.047899
931.8345,0.046119
933.6981,0.045891
935.5618,0.046460
937.4255,0.047265
939.2891,0.047972
941.1528,0.048533
943.0165,0.049198
944.8801,0.049940
946.7438,0.050565
948.6075,0.051149
950.4711,0.051933
952.3348,0.052900
954.1985,0.053762
956.0622,0.054431
957.9258,0.055082
959.7895,0.055955
961.6532,0.056984
963.5168,0.058186
965.3805,0.059562
967.2442,0.061158
969.1078,0.062960
970.9715,0.065059
972.8352,0.067756
974.6988,0.071640
976.5625,0.077917
978.4262,0.088624
980.2899,0.103706
982.1535,0.110304
984.0172,0.093810
985.8809,0.071070
987.7445,0.060860
989.6082,0.059780
991.4719,0.061078
993.3355,0.063154
995.1992,0.065746
997.0629,0.068379
998.9265,0.069657
1000.7902,0.067921
1002.6539,0.064263
1004.5175,0.061662
1006.3812,0.061083
1008.2449,0.061622
1010.1086,0.062531
1011.9722,0.063575
1013.8359,0.064645
1015.6996,0.065728
1017.5632,0.066899
1019.4269,0.068239
1021.2906,0.069626
1023.1542,0.071021
1025.0179,0.072582
1026.8816,0.074267
1028.7452,0.076024
1030.6089,0.077987
1032.4726,0.080147
1034.3362,0.082626
1036.1999,0.085558
1038.0636,0.088990
1039.9273,0.092996
1041.7909,0.097621
1043.6546,0.102929
1045.5183,0.108684
1047.3819,0.114335
1049.2456,0.117979
1051.1093,0.115678
1052.9729,0.105174
1054.8366,0.090329
1056.7003,0.078107
1058.5639,0.071651
1060.4276,0.069739
1062.2913,0.070069
1064.1550,0.071255
1066.0186,0.072859
1067.8823,0.074848
1069.7460,0.077222
1071.6096,0.079820
1073.4733,0.082510
1075.3370,0.085499
1077.2006,0.089111
1079.0643,0.093256
1080.9280,0.097711
1082.7916,0.101804
1084.6553,0.104488
1086.5190,0.105120
1088.3826,0.103791
1090.2463,0.102729
1092.1100,0.104366
1093.9737,0.108871
1095.8373,0.115144
1097.7010,0.122207
1099.5647,0.129610
1101.4283,0.136652
1103.2920,0.141302
1105.1557,0.141401
1107.0193,0.136668
1108.8830,0.128636
1110.7467,0.119046
1112.6103,0.109136
1114.4740,0.099963
1116.3377,0.092336
1118.2014,0.086650
1120.0650,0.082965
1121.9287,0.081148
1123.7924,0.080813
1125.6560,0.081137
1127.5197,0.081472
1129.3834,0.081078
1131.2470,0.079040
1133.1107,0.075407
1134.9744,0.071680
1136.8380,0.069258
1138.7017,0.068253
1140.5654,0.068259
1142.4290,0.068977
1144.2927,0.070107
1146.1564,0.071420
1148.0201,0.073001
1149.8837,0.074996
1151.7474,0.077414
1153.6111,0.080348
1155.4747,0.083865
1157.3384,0.087875
1159.2021,0.091780
1161.0657,0.094477
1162.9294,0.095184
1164.7931,0.093895
1166.6567,0.091057
1168.5204,0.087520
1170.3841,0.084294
1172.2477,0.081987
1174.1114,0.079762
1175.9751,0.076536
1177.8388,0.072924
1179.7024,0.070325
1181.5661,0.069242
1183.4298,0.069078
1185.2934,0.069546
1187.1571,0.070584
1189.0208,0.071758
1190.8844,0.073002
1192.7481,0.074481
1194.6118,0.076357
1196.4754,0.078769
1198.3391,0.081644
1200.2028,0.084509
1202.0665,0.085685
1203.9301,0.083205
1205.7938,0.078086
1207.6575,0.073662
1209.5211,0.071700
1211.3848,0.071593
1213.2485,0.072288
1215.1121,0.073268
1216.9758,0.074358
1218.8395,0.075420
1220.7031,0.076311
1222.5668,0.077180
1224.4305,0.078264
1226.2941,0.079288
1228.1578,0.080156
1230.0215,0.081107
1231.8852,0.082118
1233.7488,0.083069
1235.6125,0.083954
1237.4762,0.084933
1239.3398,0.086118
1241.2035,0.087417
1243.0672,0.088840
1244.9308,0.090423
1246.7945,0.092168
1248.6582,0.094113
1250.5218,0.096175
1252.3855,0.098058
1254.2492,0.099351
1256.1129,0.099510
1257.9765,0.098392
1259.8402,0.096817
1261.7039,0.095834
1263.5675,0.095963
1265.4312,0.097070
1267.2949,0.098462
1269.1585,0.099708
1271.0222,0.101056
1272.8859,0.102665
1274.7495,0.104684
1276.6132,0.107188
1278.4769,0.109540
1280.3405,0.110983
1282.2042,0.110710
1284.0679,0.108868
1285.9316,0.107067
1287.7952,0.106547
1289.6589,0.107428
1291.5226,0.109617
1293.3862,0.113011
1295.2499,0.117455
1297.1136,0.122675
1298.9772,0.128531
1300.8409,0.135197
1302.7046,0.142049
1304.5682,0.147211
1306.4319,0.147912
1308.2956,0.141118
1310.1592,0.127842
1312.0229,0.114368
1313.8866,0.105344
1315.7503,0.101067
1317.6139,0.099295
1319.4776,0.098548
1321.3413,0.098942
1323.2049,0.101271
1325.0686,0.105366
1326.9323,0.110211
1328.7959,0.114757
1330.6596,0.117974
1332.5233,0.118678
1334.3869,0.116214
1336.2506,0.111443
1338.1143,0.106046
1339.9780,0.100461
1341.8416,0.094976
1343.7053,0.091527
1345.5690,0.090387
1347.4326,0.091193
1349.2963,0.093455
1351.1600,0.096509
1353.0236,0.100284
1354.8873,0.105057
1356.7510,0.109562
1358.6146,0.112072
1360.4783,0.112321
1362.3420,0.111210
1364.2056,0.109049
1366.0693,0.107936
1367.9330,0.109952
1369.7967,0.113392
1371.6603,0.116378
1373.5240,0.121599
1375.3877,0.127703
1377.2513,0.131026
1379.1150,0.135220
1380.9787,0.140719
1382.8423,0.145888
1384.7060,0.151380
1386.5697,0.159165
1388.4333,0.167991
1390.2970,0.171965
1392.1607,0.173767
1394.0244,0.175738
1395.8880,0.174693
1397.7517,0.170443
1399.6154,0.165573
1401.4790,0.160539
1403.3427,0.156387
1405.2064,0.150225
1407.0700,0.140008
1408.9337,0.128249
1410.7974,0.115920
1412.6610,0.106115
1414.5247,0.101461
1416.3884,0.100722
1418.2520,0.102116
1420.1157,0.102903
1421.9794,0.101623
1423.8431,0.097928
1425.7067,0.089445
1427.5704,0.081226
1429.4341,0.076042
1431.2977,0.073537
1433.1614,0.072774
1435.0251,0.074136
1436.8887,0.078527
1438.7524,0.080916
1440.6161,0.081547
1442.4797,0.083744
1444.3434,0.086568
1446.2071,0.089716
1448.0707,0.093279
1449.9344,0.092724
1451.7981,0.086469
1453.6618,0.078757
1455.5254,0.076172
1457.3891,0.081919
1459.2528,0.085175
1461.1164,0.083624
1462.9801,0.084384
1464.8438,0.087285
1466.7074,0.088181
1468.5711,0.086746
1470.4348,0.086872
1472.2984,0.090282
1474.1621,0.093702
1476.0258,0.093997
1477.8895,0.094325
1479.7531,0.094958
1481.6168,0.096181
1483.4805,0.096320
1485.3441,0.095431
1487.2078,0.094946
1489.0715,0.095193
1490.9351,0.093685
1492.7988,0.089556
1494.6625,0.086693
1496.5261,0.085829
1498.3898,0.084855
1500.2535,0.082219
1502.1171,0.079099
1503.9808,0.076955
1505.8445,0.078532
1507.7082,0.084855
1509.5718,0.082185
1511.4355,0.079749
1513.2992,0.078944
1515.1628,0.079473
1517.0265,0.081266
1518.8902,0.081984
1520.7538,0.083380
1522.6175,0.086709
1524.4812,0.086795
1526.3448,0.087739
1528.2085,0.088963
1530.0722,0.088639
1531.9359,0.089969
1533.7995,0.093885
1535.6632,0.093853
1537.5269,0.092639
1539.3905,0.097320
1541.2542,0.107763
1543.1179,0.108218
1544.9815,0.109257
1546.8452,0.109602
1548.7089,0.110753
1550.5725,0.114142
1552.4362,0.116394
1554.2999,0.117905
1556.1635,0.120480
1558.0272,0.127331
1559.8909,0.144658
1561.7546,0.139314
1563.6182,0.136877
1565.4819,0.139309
1567.3456,0.142621
1569.2092,0.147969
1571.0729,0.153473
1572.9366,0.153852
1574.8002,0.157307
1576.6639,0.165986
1578.5276,0.168965
1580.3912,0.168581
1582.2549,0.170043
1584.1186,0.170722
1585.9822,0.170193
1587.8459,0.168834
1589.7096,0.166728
1591.5733,0.164043
1593.4369,0.161627
1595.3006,0.159904
1597.1643,0.158594
1599.0279,0.157803
1600.8916,0.157739
1602.7553,0.158190
1604.6189,0.158948
1606.4826,0.159624
1608.3463,0.160094
1610.2099,0.159664
1612.0736,0.157701
1613.9373,0.155306
1615.8010,0.153078
1617.6646,0.148743
1619.5283,0.143577
1621.3920,0.139382
1623.2556,0.133830
1625.1193,0.126743
1626.9830,0.120329
1628.8466,0.112345
1630.7103,0.104763
1632.5740,0.099012
1634.4376,0.093427
1636.3013,0.086000
1638.1650,0.080641
1640.0286,0.077941
1641.8923,0.075194
1643.7560,0.073845
1645.6197,0.073637
1647.4833,0.073633
1649.3470,0.072166
1651.2107,0.071423
1653.0743,0.072008
1654.9380,0.072301
1656.8017,0.070510
1658.6653,0.069071
1660.5290,0.067952
1662.3927,0.067183
1664.2563,0.065700
1666.1200,0.064151
1667.9837,0.063657
1669.8474,0.064967
1671.7110,0.066171
1673.5747,0.067883
1675.4384,0.072101
1677.3020,0.077170
1679.1657,0.080791
1681.0294,0.085707
1682.8930,0.090395
1684.7567,0.092333
1686.6204,0.088491
1688.4840,0.083550
1690.3477,0.076985
1692.2114,0.070082
1694.0750,0.064520
1695.9387,0.059035
1697.8024,0.053932
1699.6661,0.051473
1701.5297,0.046144
1703.3934,0.042716
1705.2571,0.038138
1707.1207,0.032481
1708.9844,0.028708
1710.8481,0.025907
1712.7117,0.023646
1714.5754,0.022401
1716.4391,0.021492
1718.3027,0.020696
1720.1664,0.019510
1722.0301,0.018918
1723.8937,0.017814
1725.7574,0.016585
1727.6211,0.015333
1729.4848,0.014395
1731.3484,0.013440
1733.2121,0.013251
1735.0758,0.012060
1736.9394,0.011507
1738.8031,0.011048
1740.6668,0.010921
1742.5304,0.010787
1744.3941,0.010556
1746.2578,0.010341
1748.1214,0.010375
1749.9851,0.010243
1751.8488,0.009849
1753.7125,0.009199
1755.5761,0.009151
1757.4398,0.009248
1759.3035,0.009371
1761.1671,0.009079
1763.0308,0.009199
1764.8945,0.009048
1766.7581,0.008996
1768.6218,0.009086
1770.4855,0.009393
1772.3491,0.009244
1774.2128,0.009380
1776.0765,0.009111
1777.9401,0.008947
1779.8038,0.009155
1781.6675,0.009488
1783.5312,0.009555
1785.3948,0.009475
1787.2585,0.009307
1789.1222,0.009208
1790.9858,0.009325
1792.8495,0.009614
1794.7132,0.009616
1796.5768,0.009362
1798.4405,0.009163
1800.3042,0.009292
1802.1678,0.009387
1804.0315,0.009418
1805.8952,0.009377
1807.7589,0.009479
1809.6225,0.009556
1811.4862,0.009669
1813.3499,0.009390
1815.2135,0.009251
1817.0772,0.009238
1818.9409,0.009374
1820.8045,0.009463
1822.6682,0.009593
1824.5319,0.009515
1826.3955,0.009590
1828.2592,0.009661
1830.1229,0.009650
1831.9865,0.009427
1833.8502,0.009125
1835.7139,0.009281
1837.5776,0.009670
1839.4412,0.009545
1841.3049,0.009392
1843.1686,0.009297
1845.0322,0.009689
1846.8959,0.009745
1848.7596,0.009540
1850.6232,0.009378
1852.4869,0.009586
1854.3506,0.009624
1856.2142,0.009517
1858.0779,0.009570
1859.9416,0.009765
1861.8052,0.009627
1863.6689,0.009652
1865.5326,0.009588
1867.3963,0.009932
1869.2599,0.010223
1871.1236,0.010235
1872.9873,0.009944
1874.8509,0.009896
1876.7146,0.009956
1878.5783,0.010380
1880.4419,0.010304
1882.3056,0.010001
1884.1693,0.009835
1886.0329,0.009903
1887.8966,0.009860
1889.7603,0.010108
1891.6240,0.009995
1893.4876,0.010162
1895.3513,0.010241
1897.2150,0.010079
1899.0786,0.009747
1900.9423,0.009775
1902.8060,0.009667
1904.6696,0.010082
1906.5333,0.010580
1908.3970,0.010739
1910.2606,0.010684
1912.1243,0.010703
1913.9880,0.010079
1915.8516,0.010294
1917.7153,0.010562
1919.5790,0.010432
1921.4427,0.010312
1923.3063,0.010616
1925.1700,0.010664
1927.0337,0.010552
1928.8973,0.009933
1930.7610,0.009745
1932.6247,0.010312
1934.4883,0.010601
1936.3520,0.009489
1938.2157,0.009468
1940.0793,0.010132
1941.9430,0.010711
1943.8067,0.010390
1945.6704,0.010144
1947.5340,0.009513
1949.3977,0.008994
1951.2614,0.008965
1953.1250,0.009542
1954.9887,0.009128
1956.8524,0.009571
1958.7160,0.009428
1960.5797,0.009330
1962.4434,0.009025
1964.3070,0.007807
1966.1707,0.006231
1968.0344,0.006872
1969.8980,0.006627
1971.7617,0.006284
1973.6254,0.006067
1975.4891,0.006891
1977.3527,0.007212
1979.2164,0.008421
1981.0801,0.008157
1982.9437,0.007939
1984.8074,0.008183
1986.6711,0.008354
1988.5347,0.008149
1990.3984,0.009315
1992.2621,0.009459
1994.1257,0.009132
1995.9894,0.009016
1997.8531,0.009635
1999.7167,0.009859
2001.5804,0.010159
2003.4441,0.009062
2005.3078,0.008632
2007.1714,0.008452
2009.0351,0.009064
2010.8988,0.009050
2012.7624,0.008594
2014.6261,0.009104
2016.4898,0.010600
2018.3534,0.009286
2020.2171,0.008022
2022.0808,0.007607
2023.9444,0.008321
2025.8081,0.008842
2027.6718,0.010126
2029.5355,0.010132
2031.3991,0.009904
2033.2628,0.008932
2035.1265,0.009518
2036.9901,0.010328
2038.8538,0.011384
2040.7175,0.011218
2042.5811,0.010620
2044.4448,0.009920
2046.3085,0.011337
2048.1721,0.012583
2050.0358,0.013024
2051.8995,0.012714
2053.7631,0.012222
2055.6268,0.012028
2057.4905,0.012214
2059.3542,0.012049
2061.2178,0.012641
2063.0815,0.012873
2064.9452,0.012791
2066.8088,0.011714
2068.6725,0.011822
2070.5362,0.012632
2072.3998,0.012751
2074.2635,0.012435
2076.1272,0.012908
2077.9908,0.013096
2079.8545,0.013198
2081.7182,0.013144
2083.5819,0.013157
2085.4455,0.013209
2087.3092,0.013662
2089.1729,0.013288
2091.0365,0.013193
2092.9002,0.013233
2094.7639,0.012924
2096.6275,0.013381
2098.4912,0.013790
2100.3549,0.013138
2102.2185,0.013357
2104.0822,0.013896
2105.9459,0.013835
2107.8095,0.013305
2109.6732,0.013590
2111.5369,0.014237
2113.4006,0.014494
2115.2642,0.014159
2117.1279,0.014380
2118.9916,0.014126
2120.8552,0.013869
2122.7189,0.013855
2124.5826,0.013762
2126.4462,0.013688
2128.3099,0.013876
2130.1736,0.012989
2132.0372,0.012932
2133.9009,0.013102
2135.7646,0.013037
2137.6282,0.012168
2139.4919,0.011447
2141.3556,0.011401
2143.2193,0.011904
2145.0829,0.010363
2146.9466,0.009542
2148.8103,0.009851
2150.6739,0.009540
2152.5376,0.008358
2154.4013,0.008073
2156.2649,0.006943
2158.1286,0.006584
2159.9923,0.006266
2161.8559,0.007925
2163.7196,0.009324
2165.5833,0.010692
2167.4470,0.010202
2169.3106,0.009501
2171.1743,0.009231
2173.0380,0.008500
2174.9016,0.007926
2176.7653,0.008871
2178.6290,0.009899
2180.4926,0.009826
2182.3563,0.009596
2184.2200,0.010849
2186.0836,0.011708
2187.9473,0.012296
2189.8110,0.011502
2191.6746,0.011313
2193.5383,0.012056
2195.4020,0.012488
2197.2657,0.011725
2199.1293,0.012476
2200.9930,0.012987
2202.8567,0.012832
2204.7203,0.012958
2206.5840,0.013574
2208.4477,0.013982
2210.3113,0.013963
2212.1750,0.013466
2214.0387,0.013701
2215.9023,0.013473
2217.7660,0.013750
2219.6297,0.014865
2221.4934,0.014890
2223.3570,0.014266
2225.2207,0.014467
2227.0844,0.014283
2228.9480,0.014975
2230.8117,0.015865
2232.6754,0.016004
2234.5390,0.015788
2236.4027,0.016225
2238.2664,0.016236
2240.1300,0.016089
2241.9937,0.016727
2243.8574,0.016842
2245.7210,0.016514
2247.5847,0.017431
2249.4484,0.017710
2251.3121,0.017323
2253.1757,0.017336
2255.0394,0.017502
2256.9031,0.017977
2258.7667,0.018945
2260.6304,0.018532
2262.4941,0.018031
2264.3577,0.018700
2266.2214,0.019257
2268.0851,0.019106
2269.9487,0.019402
2271.8124,0.019627
2273.6761,0.019980
2275.5397,0.020092
2277.4034,0.020331
2279.2671,0.020564
2281.1308,0.021118
2282.9944,0.021306
2284.8581,0.021675
2286.7218,0.021979
2288.5854,0.021442
2290.4491,0.020985
2292.3128,0.021436
2294.1764,0.021916
2296.0401,0.022143
2297.9038,0.021944
2299.7674,0.021784
2301.6311,0.021918
2303.4948,0.021952
2305.3585,0.021783
2307.2221,0.021877
2309.0858,0.022098
2310.9495,0.022204
2312.8131,0.022195
2314.6768,0.022344
2316.5405,0.022192
2318.4041,0.022297
2320.2678,0.022368
2322.1315,0.022549
2323.9951,0.022676
2325.8588,0.022542
2327.7225,0.022112
2329.5861,0.022074
2331.4498,0.021761
2333.3135,0.021529
2335.1772,0.021447
2337.0408,0.021427
2338.9045,0.021798
2340.7682,0.022161
2342.6318,0.022352
2344.4955,0.022378
2346.3592,0.022371
2348.2228,0.022159
2350.0865,0.021712
2351.9502,0.021720
2353.8138,0.021934
2355.6775,0.022060
2357.5412,0.022105
2359.4049,0.021782
2361.2685,0.021611
2363.1322,0.022188
2364.9959,0.022219
2366.8595,0.022133
2368.7232,0.022856
2370.5869,0.023194
2372.4505,0.023017
2374.3142,0.023086
2376.1779,0.023544
2378.0415,0.023757
2379.9052,0.023524
2381.7689,0.023424
2383.6325,0.023288
2385.4962,0.023479
2387.3599,0.023747
2389.2236,0.023654
2391.0872,0.023449
2392.9509,0.023622
2394.8146,0.023962
2396.6782,0.024059
2398.5419,0.023895
2400.4056,0.023897
2402.2692,0.024029
2404.1329,0.024161
2405.9966,0.024090
2407.8602,0.024290
2409.7239,0.024632
2411.5876,0.024527
2413.4512,0.024424
2415.3149,0.024362
2417.1786,0.024791
2419.0423,0.025105
2420.9059,0.025147
2422.7696,0.025292
2424.6333,0.025053
2426.4969,0.024910
2428.3606,0.025196
2430.2243,0.025458
2432.0879,0.025273
2433.9516,0.025162
2435.8153,0.025375
2437.6789,0.025972
2439.5426,0.026304
2441.4063,0.026516
2443.2700,0.026168
2445.1336,0.025857
2446.9973,0.025688
2448.8610,0.025840
2450.7246,0.025959
2452.5883,0.026104
2454.4520,0.026392
2456.3156,0.026646
2458.1793,0.026541
2460.0430,0.026594
2461.9066,0.026584
2463.7703,0.026710
2465.6340,0.026764
2467.4976,0.027007
2469.3613,0.027125
2471.2250,0.027014
2473.0887,0.027246
2474.9523,0.027146
2476.8160,0.027060
2478.6797,0.027609
2480.5433,0.027759
2482.4070,0.027526
2484.2707,0.027656
2486.1343,0.027925
2487.9980,0.028028
2489.8617,0.028230
2491.7253,0.028683
2493.5890,0.029064
2495.4527,0.029207
2497.3164,0.028954
2499.1800,0.028901
2501.0437,0.029095
2502.9074,0.029168
2504.7710,0.029079
2506.6347,0.029213
2508.4984,0.029555
2510.3620,0.029502
2512.2257,0.029547
2514.0894,0.029922
2515.9530,0.029979
2517.8167,0.029876
2519.6804,0.030206
2521.5440,0.030624
2523.4077,0.030721
2525.2714,0.030636
2527.1351,0.030581
