Wavenumber,Intensity
650.4205,0.168584
652.2841,0.164360
654.1478,0.158924
656.0115,0.156405
657.8751,0.156976
659.7388,0.154136
661.6025,0.152412
663.4661,0.149326
665.3298,0.146050
667.1935,0.146746
669.0571,0.151615
670.9208,0.149294
672.7845,0.145554
674.6481,0.144098
676.5118,0.144753
678.3755,0.144502
680.2392,0.145210
682.1028,0.144471
683.9665,0.143700
685.8302,0.143532
687.6938,0.143822
689.5575,0.144550
691.4212,0.145342
693.2848,0.144570
695.1485,0.144625
697.0122,0.144745
698.8758,0.145596
700.7395,0.146006
702.6032,0.145697
704.4669,0.143730
706.3305,0.140401
708.1942,0.135772
710.0579,0.131711
711.9215,0.127527
713.7852,0.123122
715.6489,0.119105
717.5125,0.115594
719.3762,0.111948
721.2399,0.108717
723.1035,0.105304
724.9672,0.102469
726.8309,0.100298
728.6945,0.098311
730.5582,0.095337
732.4219,0.092488
734.2856,0.090482
736.1492,0.089551
738.0129,0.088211
739.8766,0.087847
741.7402,0.088930
743.6039,0.090012
745.4676,0.090585
747.3312,0.090136
749.1949,0.089079
751.0586,0.088741
752.9222,0.088141
754.7859,0.086889
756.6496,0.085535
758.5132,0.085092
760.3769,0.084618
762.2406,0.084138
764.1043,0.083892
765.9679,0.083599
767.8316,0.083386
769.6953,0.083511
771.5589,0.083271
773.4226,0.083371
775.2863,0.084029
777.1499,0.084773
779.0136,0.085613
780.8773,0.086186
782.7409,0.087125
784.6046,0.088650
786.4683,0.090138
788.3320,0.091436
790.1956,0.091873
792.0593,0.092456
793.9230,0.093408
795.7866,0.094048
797.6503,0.094498
799.5140,0.094969
801.3776,0.094816
803.2413,0.094665
805.1050,0.093994
806.9686,0.093064
808.8323,0.091950
810.6960,0.090261
812.5596,0.088566
814.4233,0.086968
816.2870,0.084681
818.1507,0.082740
820.0143,0.081186
821.8780,0.079852
823.7417,0.078919
825.6053,0.078450
827.4690,0.078591
829.3327,0.078563
831.1963,0.075128
833.0600,0.068645
834.9237,0.063111
836.7873,0.060247
838.6510,0.058991
840.5147,0.058461
842.3784,0.058089
844.2420,0.058119
846.1057,0.058364
847.9694,0.058550
849.8330,0.058533
851.6967,0.058208
853.5604,0.057883
855.4240,0.057957
857.2877,0.058419
859.1514,0.058680
861.0150,0.058830
862.8787,0.059128
864.7424,0.059354
866.6060,0.059765
868.4697,0.060232
870.3334,0.060423
872.1971,0.060655
874.0607,0.061086
875.9244,0.061442
877.7881,0.061762
879.6517,0.062010
881.5154,0.062593
883.3791,0.063124
885.2427,0.063654
887.1064,0.064363
888.9701,0.065021
890.8337,0.065524
892.6974,0.065902
894.5611,0.066254
896.4247,0.066650
898.2884,0.067060
900.1521,0.067633
902.0158,0.068484
903.8794,0.069786
905.7431,0.071829
907.6068,0.074628
909.4704,0.077460
911.3341,0.080623
913.1978,0.084147
915.0614,0.085675
916.9251,0.081472
918.7888,0.073298
920.6524,0.067123
922.5161,0.064749
924.3798,0.064270
926.2435,0.064537
928.1071,0.065107
929.9708,0.065767
931.8345,0.066562
933.6981,0.067489
935.5618,0.068496
937.4255,0.069506
939.2891,0.070501
941.1528,0.071620
943.0165,0.072793
944.8801,0.074004
946.7438,0.075272
948.6075,0.076691
950.4711,0.078212
952.3348,0.079763
954.1985,0.081468
956.0622,0.083168
957.9258,0.084652
959.7895,0.086108
961.6532,0.087452
963.5168,0.088885
965.3805,0.090625
967.2442,0.092660
969.1078,0.094930
970.9715,0.097449
972.8352,0.100415
974.6988,0.104686
976.5625,0.111186
978.4262,0.121452
980.2899,0.135182
982.1535,0.141309
984.0172,0.128101
985.8809,0.110333
987.7445,0.103060
989.6082,0.103061
991.4719,0.104657
993.3355,0.106440
995.1992,0.108348
997.0629,0.110201
998.9265,0.111825
1000.7902,0.113440
1002.6539,0.115057
1004.5175,0.116642
1006.3812,0.118109
1008.2449,0.119528
1010.1086,0.120865
1011.9722,0.122076
1013.8359,0.123067
1015.6996,0.123770
1017.5632,0.124306
1019.4269,0.124989
1021.2906,0.125591
1023.1542,0.125838
1025.0179,0.125795
1026.8816,0.125644
1028.7452,0.125517
1030.6089,0.125591
1032.4726,0.125633
1034.3362,0.125789
1036.1999,0.126269
1038.0636,0.127092
1039.9273,0.128191
1041.7909,0.129405
1043.6546,0.130716
1045.5183,0.132076
1047.3819,0.132728
1049.2456,0.131413
1051.1093,0.127333
1052.9729,0.121269
1054.8366,0.115260
1056.7003,0.110943
1058.5639,0.108514
1060.4276,0.107358
1062.2913,0.106652
1064.1550,0.106125
1066.0186,0.105809
1067.8823,0.105738
1069.7460,0.105655
1071.6096,0.105466
1073.4733,0.105230
1075.3370,0.105009
1077.2006,0.104835
1079.0643,0.104818
1080.9280,0.105171
1082.7916,0.105745
1084.6553,0.106393
1086.5190,0.107116
1088.3826,0.107789
1090.2463,0.108653
1092.1100,0.109740
1093.9737,0.110997
1095.8373,0.112570
1097.7010,0.114348
1099.5647,0.116144
1101.4283,0.118081
1103.2920,0.119810
1105.1557,0.120605
1107.0193,0.119622
1108.8830,0.116151
1110.7467,0.110380
1112.6103,0.103310
1114.4740,0.096044
1116.3377,0.089455
1118.2014,0.084064
1120.0650,0.080037
1121.9287,0.077125
1123.7924,0.074991
1125.6560,0.073360
1127.5197,0.071815
1129.3834,0.070075
1131.2470,0.068332
1133.1107,0.066856
1134.9744,0.065675
1136.8380,0.064578
1138.7017,0.063749
1140.5654,0.063274
1142.4290,0.063091
1144.2927,0.063135
1146.1564,0.063423
1148.0201,0.063742
1149.8837,0.064135
1151.7474,0.064783
1153.6111,0.065211
1155.4747,0.065386
1157.3384,0.065510
1159.2021,0.065516
1161.0657,0.065414
1162.9294,0.065485
1164.7931,0.065862
1166.6567,0.066402
1168.5204,0.067092
1170.3841,0.067718
1172.2477,0.067726
1174.1114,0.066376
1175.9751,0.063402
1177.8388,0.059789
1179.7024,0.056982
1181.5661,0.055369
1183.4298,0.054672
1185.2934,0.054573
1187.1571,0.054836
1189.0208,0.055172
1190.8844,0.055368
1192.7481,0.055356
1194.6118,0.055229
1196.4754,0.055095
1198.3391,0.054902
1200.2028,0.054702
1202.0665,0.054615
1203.9301,0.054657
1205.7938,0.054821
1207.6575,0.055062
1209.5211,0.055427
1211.3848,0.056042
1213.2485,0.056948
1215.1121,0.057961
1216.9758,0.059065
1218.8395,0.060200
1220.7031,0.061230
1222.5668,0.062175
1224.4305,0.063187
1226.2941,0.064360
1228.1578,0.065601
1230.0215,0.066866
1231.8852,0.068010
1233.7488,0.069036
1235.6125,0.069923
1237.4762,0.070721
1239.3398,0.071374
1241.2035,0.071729
1243.0672,0.071976
1244.9308,0.072315
1246.7945,0.072675
1248.6582,0.072971
1250.5218,0.073232
1252.3855,0.073530
1254.2492,0.073750
1256.1129,0.073964
1257.9765,0.074271
1259.8402,0.074767
1261.7039,0.075339
1263.5675,0.075658
1265.4312,0.075944
1267.2949,0.076097
1269.1585,0.075864
1271.0222,0.075596
1272.8859,0.075445
1274.7495,0.075427
1276.6132,0.075605
1278.4769,0.075925
1280.3405,0.076464
1282.2042,0.077125
1284.0679,0.077787
1285.9316,0.078600
1287.7952,0.079806
1289.6589,0.081159
1291.5226,0.082442
1293.3862,0.084044
1295.2499,0.086251
1297.1136,0.088902
1298.9772,0.092101
1300.8409,0.095984
1302.7046,0.100047
1304.5682,0.102546
1306.4319,0.101336
1308.2956,0.094569
1310.1592,0.083266
1312.0229,0.072298
1313.8866,0.065305
1315.7503,0.062571
1317.6139,0.062771
1319.4776,0.064337
1321.3413,0.065750
1323.2049,0.067090
1325.0686,0.068857
1326.9323,0.070550
1328.7959,0.072055
1330.6596,0.073322
1332.5233,0.074015
1334.3869,0.074222
1336.2506,0.074451
1338.1143,0.075507
1339.9780,0.077562
1341.8416,0.078249
1343.7053,0.077861
1345.5690,0.078222
1347.4326,0.079239
1349.2963,0.080637
1351.1600,0.082222
1353.0236,0.083914
1354.8873,0.086107
1356.7510,0.088050
1358.6146,0.089124
1360.4783,0.090674
1362.3420,0.094481
1364.2056,0.097844
1366.0693,0.098682
1367.9330,0.100241
1369.7967,0.102310
1371.6603,0.103285
1373.5240,0.105763
1375.3877,0.109085
1377.2513,0.110298
1379.1150,0.112060
1380.9787,0.114926
1382.8423,0.117535
1384.7060,0.120301
1386.5697,0.125111
1388.4333,0.131169
1390.2970,0.132784
1392.1607,0.132478
1394.0244,0.132739
1395.8880,0.131163
1397.7517,0.126720
1399.6154,0.121939
1401.4790,0.116463
1403.3427,0.111147
1405.2064,0.104941
1407.0700,0.096043
1408.9337,0.086274
1410.7974,0.077387
1412.6610,0.070937
1414.5247,0.067127
1416.3884,0.065965
1418.2520,0.068657
1420.1157,0.074199
1421.9794,0.074994
1423.8431,0.072881
1425.7067,0.067835
1427.5704,0.061926
1429.4341,0.058253
1431.2977,0.056657
1433.1614,0.055535
1435.0251,0.055621
1436.8887,0.058823
1438.7524,0.060605
1440.6161,0.059730
1442.4797,0.059971
1444.3434,0.060324
1446.2071,0.060502
1448.0707,0.061159
1449.9344,0.060406
1451.7981,0.057807
1453.6618,0.055090
1455.5254,0.053973
1457.3891,0.058176
1459.2528,0.060098
1461.1164,0.057446
1462.9801,0.056184
1464.8438,0.056974
1466.7074,0.056597
1468.5711,0.053817
1470.4348,0.051706
1472.2984,0.052519
1474.1621,0.054479
1476.0258,0.053946
1477.8895,0.053382
1479.7531,0.052766
1481.6168,0.052677
1483.4805,0.052567
1485.3441,0.051812
1487.2078,0.052098
1489.0715,0.054407
1490.9351,0.056910
1492.7988,0.055927
1494.6625,0.054775
1496.5261,0.056659
1498.3898,0.059611
1500.2535,0.059726
1502.1171,0.058359
1503.9808,0.056689
1505.8445,0.058209
1507.7082,0.068335
1509.5718,0.068034
1511.4355,0.065713
1513.2992,0.065353
1515.1628,0.065359
1517.0265,0.066910
1518.8902,0.067858
1520.7538,0.068950
1522.6175,0.072730
1524.4812,0.072589
1526.3448,0.072916
1528.2085,0.073950
1530.0722,0.072996
1531.9359,0.072980
1533.7995,0.075830
1535.6632,0.075832
1537.5269,0.073245
1539.3905,0.075902
1541.2542,0.085388
1543.1179,0.086030
1544.9815,0.086382
1546.8452,0.086291
1548.7089,0.086108
1550.5725,0.088173
1552.4362,0.089244
1554.2999,0.089450
1556.1635,0.090393
1558.0272,0.095374
1559.8909,0.112515
1561.7546,0.107496
1563.6182,0.103524
1565.4819,0.104759
1567.3456,0.106542
1569.2092,0.110379
1571.0729,0.115044
1572.9366,0.113991
1574.8002,0.115491
1576.6639,0.123940
1578.5276,0.126923
1580.3912,0.125949
1582.2549,0.127697
1584.1186,0.129861
1585.9822,0.131436
1587.8459,0.132661
1589.7096,0.133547
1591.5733,0.133828
1593.4369,0.133766
1595.3006,0.133578
1597.1643,0.132502
1599.0279,0.130505
1600.8916,0.128627
1602.7553,0.126949
1604.6189,0.125087
1606.4826,0.122925
1608.3463,0.121123
1610.2099,0.119111
1612.0736,0.116090
1613.9373,0.112489
1615.8010,0.109982
1617.6646,0.107184
1619.5283,0.102004
1621.3920,0.097544
1623.2556,0.094079
1625.1193,0.089573
1626.9830,0.084614
1628.8466,0.078932
1630.7103,0.073094
1632.5740,0.067850
1634.4376,0.063581
1636.3013,0.060264
1638.1650,0.057723
1640.0286,0.055589
1641.8923,0.054173
1643.7560,0.053245
1645.6197,0.053524
1647.4833,0.056063
1649.3470,0.056458
1651.2107,0.055289
1653.0743,0.058978
1654.9380,0.064630
1656.8017,0.061742
1658.6653,0.060150
1660.5290,0.059860
1662.3927,0.059835
1664.2563,0.059341
1666.1200,0.057403
1667.9837,0.055798
1669.8474,0.056051
1671.7110,0.056195
1673.5747,0.055691
1675.4384,0.057110
1677.3020,0.058582
1679.1657,0.058309
1681.0294,0.059146
1682.8930,0.061031
1684.7567,0.066017
1686.6204,0.067353
1688.4840,0.064977
1690.3477,0.063664
1692.2114,0.061379
1694.0750,0.058706
1695.9387,0.056744
1697.8024,0.055238
1699.6661,0.053193
1701.5297,0.051556
1703.3934,0.047865
1705.2571,0.043858
1707.1207,0.040033
1708.9844,0.036687
1710.8481,0.033708
1712.7117,0.031215
1714.5754,0.029401
1716.4391,0.029004
1718.3027,0.029799
1720.1664,0.029562
1722.0301,0.028032
1723.8937,0.026733
1725.7574,0.025262
1727.6211,0.023543
1729.4848,0.021904
1731.3484,0.020543
1733.2121,0.019568
1735.0758,0.019610
1736.9394,0.018651
1738.8031,0.017223
1740.6668,0.016877
1742.5304,0.016105
1744.3941,0.015048
1746.2578,0.014181
1748.1214,0.013356
1749.9851,0.013063
1751.8488,0.012894
1753.7125,0.012480
1755.5761,0.011792
1757.4398,0.011702
1759.3035,0.011593
1761.1671,0.011174
1763.0308,0.011471
1764.8945,0.011254
1766.7581,0.010606
1768.6218,0.010436
1770.4855,0.010388
1772.3491,0.010445
1774.2128,0.011139
1776.0765,0.010790
1777.9401,0.010627
1779.8038,0.010598
1781.6675,0.010822
1783.5312,0.010971
1785.3948,0.011021
1787.2585,0.011026
1789.1222,0.010532
1790.9858,0.010216
1792.8495,0.010874
1794.7132,0.011289
1796.5768,0.010866
1798.4405,0.010774
1800.3042,0.010718
1802.1678,0.010939
1804.0315,0.011167
1805.8952,0.011042
1807.7589,0.010947
1809.6225,0.011132
1811.4862,0.011192
1813.3499,0.011027
1815.2135,0.010752
1817.0772,0.010834
1818.9409,0.011162
1820.8045,0.011192
1822.6682,0.010869
1824.5319,0.010416
1826.3955,0.010565
1828.2592,0.010845
1830.1229,0.010972
1831.9865,0.011134
1833.8502,0.010651
1835.7139,0.010649
1837.5776,0.010711
1839.4412,0.010658
1841.3049,0.010548
1843.1686,0.010555
1845.0322,0.011244
1846.8959,0.011484
1848.7596,0.010953
1850.6232,0.011025
1852.4869,0.011132
1854.3506,0.011187
1856.2142,0.010968
1858.0779,0.010907
1859.9416,0.011023
1861.8052,0.011175
1863.6689,0.010942
1865.5326,0.010813
1867.3963,0.011056
1869.2599,0.011110
1871.1236,0.010631
1872.9873,0.010674
1874.8509,0.010997
1876.7146,0.011016
1878.5783,0.011055
1880.4419,0.011296
1882.3056,0.011270
1884.1693,0.011171
1886.0329,0.010973
1887.8966,0.010687
1889.7603,0.010711
1891.6240,0.010895
1893.4876,0.010466
1895.3513,0.010536
1897.2150,0.010786
1899.0786,0.010922
1900.9423,0.011139
1902.8060,0.011122
1904.6696,0.010867
1906.5333,0.010823
1908.3970,0.010865
1910.2606,0.010912
1912.1243,0.010711
1913.9880,0.010582
1915.8516,0.010617
1917.7153,0.010577
1919.5790,0.010441
1921.4427,0.010126
1923.3063,0.010325
1925.1700,0.010865
1927.0337,0.010569
1928.8973,0.010404
1930.7610,0.010649
1932.6247,0.010779
1934.4883,0.010327
1936.3520,0.010157
1938.2157,0.009895
1940.0793,0.009424
1941.9430,0.009727
1943.8067,0.010177
1945.6704,0.009410
1947.5340,0.009086
1949.3977,0.008703
1951.2614,0.008078
1953.1250,0.008197
1954.9887,0.008983
1956.8524,0.008341
1958.7160,0.007035
1960.5797,0.007001
1962.4434,0.007511
1964.3070,0.007311
1966.1707,0.005804
1968.0344,0.004519
1969.8980,0.004857
1971.7617,0.005207
1973.6254,0.005909
1975.4891,0.006163
1977.3527,0.005793
1979.2164,0.006089
1981.0801,0.006626
1982.9437,0.006599
1984.8074,0.007287
1986.6711,0.007727
1988.5347,0.007714
1990.3984,0.007525
1992.2621,0.007763
1994.1257,0.008696
1995.9894,0.008849
1997.8531,0.008144
1999.7167,0.007502
2001.5804,0.007166
2003.4441,0.007591
2005.3078,0.006796
2007.1714,0.004556
2009.0351,0.003544
2010.8988,0.004392
2012.7624,0.005555
2014.6261,0.006514
2016.4898,0.006123
2018.3534,0.004614
2020.2171,0.004108
2022.0808,0.004901
2023.9444,0.005922
2025.8081,0.005459
2027.6718,0.003447
2029.5355,0.003442
2031.3991,0.004582
2033.2628,0.005257
2035.1265,0.005754
2036.9901,0.006697
2038.8538,0.007442
2040.7175,0.007567
2042.5811,0.007270
2044.4448,0.007567
2046.3085,0.008410
2048.1721,0.009750
2050.0358,0.010517
2051.8995,0.009713
2053.7631,0.009650
2055.6268,0.010647
2057.4905,0.010447
2059.3542,0.010225
2061.2178,0.010935
2063.0815,0.011843
2064.9452,0.011337
2066.8088,0.010304
2068.6725,0.010634
2070.5362,0.011756
2072.3998,0.012395
2074.2635,0.012481
2076.1272,0.012400
2077.9908,0.012586
2079.8545,0.011980
2081.7182,0.011563
2083.5819,0.012462
2085.4455,0.013414
2087.3092,0.013738
2089.1729,0.013550
2091.0365,0.013071
2092.9002,0.012963
2094.7639,0.013178
2096.6275,0.013433
2098.4912,0.013370
2100.3549,0.013267
2102.2185,0.013573
2104.0822,0.013999
2105.9459,0.013854
2107.8095,0.013676
2109.6732,0.013797
2111.5369,0.014183
2113.4006,0.014256
2115.2642,0.013465
2117.1279,0.013126
2118.9916,0.013586
2120.8552,0.013341
2122.7189,0.012802
2124.5826,0.012330
2126.4462,0.012459
2128.3099,0.012890
2130.1736,0.012804
2132.0372,0.012091
2133.9009,0.011036
2135.7646,0.010560
2137.6282,0.011301
2139.4919,0.011740
2141.3556,0.011098
2143.2193,0.010271
2145.0829,0.009785
2146.9466,0.008622
2148.8103,0.007749
2150.6739,0.007140
2152.5376,0.006045
2154.4013,0.004868
2156.2649,0.003538
2158.1286,0.002201
2159.9923,0.004246
2161.8559,0.006568
2163.7196,0.006602
2165.5833,0.006792
2167.4470,0.007815
2169.3106,0.008625
2171.1743,0.008161
2173.0380,0.006842
2174.9016,0.007454
2176.7653,0.009295
2178.6290,0.009373
2180.4926,0.008315
2182.3563,0.008312
2184.2200,0.008812
2186.0836,0.009675
2187.9473,0.011376
2189.8110,0.011753
2191.6746,0.010364
2193.5383,0.010482
2195.4020,0.011205
2197.2657,0.011095
2199.1293,0.010654
2200.9930,0.010906
2202.8567,0.011431
2204.7203,0.012076
2206.5840,0.012544
2208.4477,0.012366
2210.3113,0.011995
2212.1750,0.011425
2214.0387,0.011409
2215.9023,0.012116
2217.7660,0.012644
2219.6297,0.013177
2221.4934,0.012861
2223.3570,0.012820
2225.2207,0.014103
2227.0844,0.014124
2228.9480,0.013189
2230.8117,0.013559
2232.6754,0.013881
2234.5390,0.014832
2236.4027,0.015444
2238.2664,0.014915
2240.1300,0.014568
2241.9937,0.014073
2243.8574,0.014105
2245.7210,0.014581
2247.5847,0.015084
2249.4484,0.015557
2251.3121,0.015488
2253.1757,0.015361
2255.0394,0.015505
2256.9031,0.015725
2258.7667,0.015294
2260.6304,0.015231
2262.4941,0.016198
2264.3577,0.016992
2266.2214,0.016743
2268.0851,0.016416
2269.9487,0.016527
2271.8124,0.016734
2273.6761,0.017049
2275.5397,0.017491
2277.4034,0.017673
2279.2671,0.017935
2281.1308,0.018507
2282.9944,0.019258
2284.8581,0.019322
2286.7218,0.019036
2288.5854,0.018794
2290.4491,0.018766
2292.3128,0.019233
2294.1764,0.019457
2296.0401,0.019049
2297.9038,0.018806
2299.7674,0.018797
2301.6311,0.018758
2303.4948,0.018657
2305.3585,0.018730
2307.2221,0.019133
2309.0858,0.019305
2310.9495,0.019249
2312.8131,0.019263
2314.6768,0.019049
2316.5405,0.019132
2318.4041,0.019601
2320.2678,0.019910
2322.1315,0.020075
2323.9951,0.020077
2325.8588,0.019493
2327.7225,0.018567
2329.5861,0.018051
2331.4498,0.018152
2333.3135,0.018509
2335.1772,0.018810
2337.0408,0.018670
2338.9045,0.018592
2340.7682,0.018935
2342.6318,0.019337
2344.4955,0.019341
2346.3592,0.019170
2348.2228,0.018791
2350.0865,0.018331
2351.9502,0.018172
2353.8138,0.018283
2355.6775,0.018057
2357.5412,0.017975
2359.4049,0.018281
2361.2685,0.018463
2363.1322,0.018078
2364.9959,0.017975
2366.8595,0.018527
2368.7232,0.019176
2370.5869,0.019425
2372.4505,0.019421
2374.3142,0.019395
2376.1779,0.019334
2378.0415,0.019249
2379.9052,0.019147
2381.7689,0.019051
2383.6325,0.019150
2385.4962,0.019025
2387.3599,0.018957
2389.2236,0.019049
2391.0872,0.019093
2392.9509,0.018900
2394.8146,0.018818
2396.6782,0.019128
2398.5419,0.019273
2400.4056,0.019110
2402.2692,0.018967
2404.1329,0.019149
2405.9966,0.019295
2407.8602,0.019348
2409.7239,0.019629
2411.5876,0.019743
2413.4512,0.019921
2415.3149,0.020065
2417.1786,0.019895
2419.0423,0.019893
2420.9059,0.020020
2422.7696,0.019881
2424.6333,0.019879
2426.4969,0.019714
2428.3606,0.019713
2430.2243,0.020186
2432.0879,0.020433
2433.9516,0.020218
2435.8153,0.020149
2437.6789,0.020558
2439.5426,0.020832
2441.4063,0.020463
2443.2700,0.020258
2445.1336,0.020431
2446.9973,0.020714
2448.8610,0.020942
2450.7246,0.020861
2452.5883,0.020266
2454.4520,0.020074
2456.3156,0.020387
2458.1793,0.020472
2460.0430,0.020312
2461.9066,0.020095
2463.7703,0.019975
2465.6340,0.020350
2467.4976,0.020503
2469.3613,0.020275
2471.2250,0.020484
2473.0887,0.020956
2474.9523,0.020842
2476.8160,0.020517
2478.6797,0.020477
2480.5433,0.020326
2482.4070,0.020396
2484.2707,0.020845
2486.1343,0.020779
2487.9980,0.020755
2489.8617,0.021024
2491.7253,0.021036
2493.5890,0.021242
2495.4527,0.021730
2497.3164,0.021683
2499.1800,0.021784
2501.0437,0.021935
2502.9074,0.021888
2504.7710,0.022149
2506.6347,0.022076
2508.4984,0.021695
2510.3620,0.021661
2512.2257,0.021648
2514.0894,0.021826
2515.9530,0.021966
2517.8167,0.022153
2519.6804,0.022255
2521.5440,0.022177
2523.4077,0.022174
2525.2714,0.022501
2527.1351,0.022489
