Wavenumber,Intensity
650.4205,0.195994
652.2841,0.190216
654.1478,0.189200
656.0115,0.186228
657.8751,0.182306
659.7388,0.178190
661.6025,0.176430
663.4661,0.174382
665.3298,0.171440
667.1935,0.169989
669.0571,0.172207
670.9208,0.171234
672.7845,0.170101
674.6481,0.169633
676.5118,0.168561
678.3755,0.168395
680.2392,0.169238
682.1028,0.169032
683.9665,0.168691
685.8302,0.167685
687.6938,0.167244
689.5575,0.166934
691.4212,0.167352
693.2848,0.167841
695.1485,0.168816
697.0122,0.169474
698.8758,0.170153
700.7395,0.169987
702.6032,0.170200
704.4669,0.169116
706.3305,0.164953
708.1942,0.158708
710.0579,0.153398
711.9215,0.147977
713.7852,0.142733
715.6489,0.137195
717.5125,0.132136
719.3762,0.127788
721.2399,0.123884
723.1035,0.120326
724.9672,0.116739
726.8309,0.113555
728.6945,0.110994
730.5582,0.108513
732.4219,0.106202
734.2856,0.103408
736.1492,0.101076
738.0129,0.099620
739.8766,0.099125
741.7402,0.099826
743.6039,0.100831
745.4676,0.101365
747.3312,0.101488
749.1949,0.100631
751.0586,0.099572
752.9222,0.098341
754.7859,0.097054
756.6496,0.096125
758.5132,0.095334
760.3769,0.094498
762.2406,0.094076
764.1043,0.093489
765.9679,0.092852
767.8316,0.092618
769.6953,0.092586
771.5589,0.092503
773.4226,0.092701
775.2863,0.092938
777.1499,0.093345
779.0136,0.094308
780.8773,0.095678
782.7409,0.096894
784.6046,0.097888
786.4683,0.099020
788.3320,0.099850
790.1956,0.100490
792.0593,0.101537
793.9230,0.102340
795.7866,0.103235
797.6503,0.104233
799.5140,0.104919
801.3776,0.105241
803.2413,0.105078
805.1050,0.104570
806.9686,0.103584
808.8323,0.101946
810.6960,0.100270
812.5596,0.098359
814.4233,0.096022
816.2870,0.093751
818.1507,0.091471
820.0143,0.089322
821.8780,0.088013
823.7417,0.086942
825.6053,0.086184
827.4690,0.086549
829.3327,0.086853
831.1963,0.083166
833.0600,0.075187
834.9237,0.068260
836.7873,0.064912
838.6510,0.063467
840.5147,0.062704
842.3784,0.062454
844.2420,0.062369
846.1057,0.061989
847.9694,0.061724
849.8330,0.061800
851.6967,0.061818
853.5604,0.061811
855.4240,0.061975
857.2877,0.062165
859.1514,0.062402
861.0150,0.062681
862.8787,0.062996
864.7424,0.063239
866.6060,0.063498
868.4697,0.063837
870.3334,0.064113
872.1971,0.064570
874.0607,0.064901
875.9244,0.064827
877.7881,0.065014
879.6517,0.065671
881.5154,0.066263
883.3791,0.066713
885.2427,0.067417
887.1064,0.068023
888.9701,0.068587
890.8337,0.069311
892.6974,0.069897
894.5611,0.070210
896.4247,0.070346
898.2884,0.070752
900.1521,0.071504
902.0158,0.072475
903.8794,0.073910
905.7431,0.076124
907.6068,0.079038
909.4704,0.082512
911.3341,0.086846
913.1978,0.091866
915.0614,0.094657
916.9251,0.090285
918.7888,0.080329
920.6524,0.072143
922.5161,0.068748
924.3798,0.068134
926.2435,0.068317
928.1071,0.068811
929.9708,0.069571
931.8345,0.070461
933.6981,0.071372
935.5618,0.072314
937.4255,0.073463
939.2891,0.074767
941.1528,0.076042
943.0165,0.077252
944.8801,0.078503
946.7438,0.079814
948.6075,0.081209
950.4711,0.082728
952.3348,0.084458
954.1985,0.086254
956.0622,0.087987
957.9258,0.089728
959.7895,0.091418
961.6532,0.093062
963.5168,0.094671
965.3805,0.096400
967.2442,0.098521
969.1078,0.100977
970.9715,0.103564
972.8352,0.106715
974.6988,0.111291
976.5625,0.118606
978.4262,0.130882
980.2899,0.148282
982.1535,0.157314
984.0172,0.141628
985.8809,0.118740
987.7445,0.109080
989.6082,0.108932
991.4719,0.110801
993.3355,0.112730
995.1992,0.114635
997.0629,0.116606
998.9265,0.118548
1000.7902,0.120549
1002.6539,0.122615
1004.5175,0.124553
1006.3812,0.126273
1008.2449,0.127890
1010.1086,0.129337
1011.9722,0.130454
1013.8359,0.131389
1015.6996,0.132383
1017.5632,0.133338
1019.4269,0.134048
1021.2906,0.134556
1023.1542,0.134940
1025.0179,0.135135
1026.8816,0.135209
1028.7452,0.135356
1030.6089,0.135693
1032.4726,0.135995
1034.3362,0.136333
1036.1999,0.137029
1038.0636,0.138135
1039.9273,0.139633
1041.7909,0.141453
1043.6546,0.143468
1045.5183,0.145388
1047.3819,0.146456
1049.2456,0.145307
1051.1093,0.140565
1052.9729,0.133019
1054.8366,0.125564
1056.7003,0.120283
1058.5639,0.117265
1060.4276,0.115746
1062.2913,0.115056
1064.1550,0.114804
1066.0186,0.114729
1067.8823,0.114688
1069.7460,0.114620
1071.6096,0.114489
1073.4733,0.114271
1075.3370,0.114036
1077.2006,0.113888
1079.0643,0.114019
1080.9280,0.114496
1082.7916,0.115161
1084.6553,0.116108
1086.5190,0.117318
1088.3826,0.118525
1090.2463,0.119747
1092.1100,0.121238
1093.9737,0.122957
1095.8373,0.124903
1097.7010,0.127331
1099.5647,0.130124
1101.4283,0.133041
1103.2920,0.135714
1105.1557,0.137332
1107.0193,0.136817
1108.8830,0.132973
1110.7467,0.125669
1112.6103,0.116540
1114.4740,0.107333
1116.3377,0.099064
1118.2014,0.092276
1120.0650,0.087060
1121.9287,0.083361
1123.7924,0.080857
1125.6560,0.078867
1127.5197,0.076889
1129.3834,0.074928
1131.2470,0.073227
1133.1107,0.071711
1134.9744,0.070367
1136.8380,0.069416
1138.7017,0.068848
1140.5654,0.068551
1142.4290,0.068541
1144.2927,0.068771
1146.1564,0.069173
1148.0201,0.069702
1149.8837,0.070299
1151.7474,0.070885
1153.6111,0.071338
1155.4747,0.071635
1157.3384,0.071778
1159.2021,0.071723
1161.0657,0.071585
1162.9294,0.071611
1164.7931,0.071977
1166.6567,0.072704
1168.5204,0.073756
1170.3841,0.074763
1172.2477,0.075054
1174.1114,0.073673
1175.9751,0.070279
1177.8388,0.065979
1179.7024,0.062398
1181.5661,0.060282
1183.4298,0.059360
1185.2934,0.059179
1187.1571,0.059481
1189.0208,0.059960
1190.8844,0.060361
1192.7481,0.060581
1194.6118,0.060603
1196.4754,0.060503
1198.3391,0.060430
1200.2028,0.060347
1202.0665,0.060298
1203.9301,0.060328
1205.7938,0.060493
1207.6575,0.060865
1209.5211,0.061385
1211.3848,0.062058
1213.2485,0.062914
1215.1121,0.063885
1216.9758,0.064973
1218.8395,0.066120
1220.7031,0.067287
1222.5668,0.068536
1224.4305,0.069854
1226.2941,0.071101
1228.1578,0.072329
1230.0215,0.073681
1231.8852,0.074952
1233.7488,0.075969
1235.6125,0.076886
1237.4762,0.077723
1239.3398,0.078461
1241.2035,0.079055
1243.0672,0.079544
1244.9308,0.079942
1246.7945,0.080185
1248.6582,0.080425
1250.5218,0.080721
1252.3855,0.080941
1254.2492,0.081050
1256.1129,0.081056
1257.9765,0.081213
1259.8402,0.081623
1261.7039,0.082050
1263.5675,0.082539
1265.4312,0.083237
1267.2949,0.083742
1269.1585,0.083824
1271.0222,0.083728
1272.8859,0.083593
1274.7495,0.083493
1276.6132,0.083687
1278.4769,0.084139
1280.3405,0.084685
1282.2042,0.085300
1284.0679,0.086071
1285.9316,0.087113
1287.7952,0.088391
1289.6589,0.089806
1291.5226,0.091412
1293.3862,0.093398
1295.2499,0.095877
1297.1136,0.099061
1298.9772,0.102780
1300.8409,0.107265
1302.7046,0.112445
1304.5682,0.116519
1306.4319,0.116647
1308.2956,0.109738
1310.1592,0.096342
1312.0229,0.082429
1313.8866,0.073109
1315.7503,0.069319
1317.6139,0.069088
1319.4776,0.070442
1321.3413,0.071961
1323.2049,0.073456
1325.0686,0.075249
1326.9323,0.077189
1328.7959,0.079106
1330.6596,0.080861
1332.5233,0.082279
1334.3869,0.083135
1336.2506,0.083826
1338.1143,0.085321
1339.9780,0.087209
1341.8416,0.087424
1343.7053,0.086960
1345.5690,0.087485
1347.4326,0.088553
1349.2963,0.089938
1351.1600,0.091462
1353.0236,0.093108
1354.8873,0.095317
1356.7510,0.097461
1358.6146,0.099179
1360.4783,0.101757
1362.3420,0.106378
1364.2056,0.110193
1366.0693,0.111283
1367.9330,0.113417
1369.7967,0.116136
1371.6603,0.117720
1373.5240,0.120689
1375.3877,0.124204
1377.2513,0.125521
1379.1150,0.127696
1380.9787,0.131114
1382.8423,0.134542
1384.7060,0.138506
1386.5697,0.144735
1388.4333,0.151926
1390.2970,0.154821
1392.1607,0.156104
1394.0244,0.157683
1395.8880,0.155754
1397.7517,0.149945
1399.6154,0.143041
1401.4790,0.135646
1403.3427,0.129287
1405.2064,0.121165
1407.0700,0.109182
1408.9337,0.096890
1410.7974,0.085657
1412.6610,0.077311
1414.5247,0.072763
1416.3884,0.071917
1418.2520,0.075715
1420.1157,0.081713
1421.9794,0.083224
1423.8431,0.081244
1425.7067,0.075066
1427.5704,0.068225
1429.4341,0.064082
1431.2977,0.062285
1433.1614,0.061349
1435.0251,0.062057
1436.8887,0.065052
1438.7524,0.066008
1440.6161,0.065491
1442.4797,0.066096
1444.3434,0.066716
1446.2071,0.067241
1448.0707,0.067594
1449.9344,0.066183
1451.7981,0.063544
1453.6618,0.061027
1455.5254,0.060814
1457.3891,0.064664
1459.2528,0.065141
1461.1164,0.062499
1462.9801,0.061747
1464.8438,0.062525
1466.7074,0.061883
1468.5711,0.059495
1470.4348,0.058440
1472.2984,0.059659
1474.1621,0.060883
1476.0258,0.059928
1477.8895,0.059136
1479.7531,0.058527
1481.6168,0.058563
1483.4805,0.058346
1485.3441,0.058034
1487.2078,0.058955
1489.0715,0.061620
1490.9351,0.063162
1492.7988,0.061726
1494.6625,0.061155
1496.5261,0.063630
1498.3898,0.065976
1500.2535,0.065702
1502.1171,0.064409
1503.9808,0.063735
1505.8445,0.066713
1507.7082,0.075581
1509.5718,0.073928
1511.4355,0.072071
1513.2992,0.071999
1515.1628,0.072731
1517.0265,0.074581
1518.8902,0.075854
1520.7538,0.077695
1522.6175,0.081373
1524.4812,0.080834
1526.3448,0.081512
1528.2085,0.082370
1530.0722,0.081738
1531.9359,0.082524
1533.7995,0.085724
1535.6632,0.085414
1537.5269,0.084039
1539.3905,0.088531
1541.2542,0.097382
1543.1179,0.096959
1544.9815,0.097072
1546.8452,0.096951
1548.7089,0.097661
1550.5725,0.100204
1552.4362,0.101538
1554.2999,0.102120
1556.1635,0.104065
1558.0272,0.110514
1559.8909,0.126061
1561.7546,0.119513
1563.6182,0.116475
1565.4819,0.118381
1567.3456,0.120976
1569.2092,0.125296
1571.0729,0.130009
1572.9366,0.129379
1574.8002,0.132388
1576.6639,0.141415
1578.5276,0.144608
1580.3912,0.143970
1582.2549,0.146434
1584.1186,0.149194
1585.9822,0.151700
1587.8459,0.153254
1589.7096,0.154461
1591.5733,0.154861
1593.4369,0.154776
1595.3006,0.153943
1597.1643,0.152513
1599.0279,0.150219
1600.8916,0.148009
1602.7553,0.145684
1604.6189,0.143278
1606.4826,0.140663
1608.3463,0.138408
1610.2099,0.136096
1612.0736,0.132812
1613.9373,0.129103
1615.8010,0.126290
1617.6646,0.121483
1619.5283,0.115072
1621.3920,0.110618
1623.2556,0.105958
1625.1193,0.100047
1626.9830,0.094593
1628.8466,0.088233
1630.7103,0.081261
1632.5740,0.075530
1634.4376,0.071167
1636.3013,0.067046
1638.1650,0.063066
1640.0286,0.060843
1641.8923,0.059224
1643.7560,0.058798
1645.6197,0.060081
1647.4833,0.062902
1649.3470,0.062811
1651.2107,0.063145
1653.0743,0.068366
1654.9380,0.071839
1656.8017,0.068760
1658.6653,0.067934
1660.5290,0.067987
1662.3927,0.067904
1664.2563,0.066279
1666.1200,0.064220
1667.9837,0.062980
1669.8474,0.062241
1671.7110,0.060791
1673.5747,0.060371
1675.4384,0.061646
1677.3020,0.063000
1679.1657,0.063636
1681.0294,0.065985
1682.8930,0.069690
1684.7567,0.075592
1686.6204,0.076123
1688.4840,0.074720
1690.3477,0.073873
1692.2114,0.071561
1694.0750,0.069283
1695.9387,0.067919
1697.8024,0.066014
1699.6661,0.064161
1701.5297,0.060104
1703.3934,0.055617
1705.2571,0.051176
1707.1207,0.045937
1708.9844,0.041424
1710.8481,0.038209
1712.7117,0.035860
1714.5754,0.034696
1716.4391,0.034258
1718.3027,0.033932
1720.1664,0.032424
1722.0301,0.031118
1723.8937,0.029816
1725.7574,0.028173
1727.6211,0.026299
1729.4848,0.024912
1731.3484,0.023680
1733.2121,0.023111
1735.0758,0.021861
1736.9394,0.020542
1738.8031,0.019576
1740.6668,0.018917
1742.5304,0.017934
1744.3941,0.017277
1746.2578,0.016550
1748.1214,0.016164
1749.9851,0.015738
1751.8488,0.015017
1753.7125,0.014114
1755.5761,0.013860
1757.4398,0.013667
1759.3035,0.013641
1761.1671,0.013296
1763.0308,0.013148
1764.8945,0.012793
1766.7581,0.012846
1768.6218,0.012941
1770.4855,0.013233
1772.3491,0.013214
1774.2128,0.013249
1776.0765,0.012782
1777.9401,0.012810
1779.8038,0.012769
1781.6675,0.012923
1783.5312,0.012992
1785.3948,0.012959
1787.2585,0.012802
1789.1222,0.012760
1790.9858,0.012938
1792.8495,0.013308
1794.7132,0.012994
1796.5768,0.012886
1798.4405,0.012934
1800.3042,0.013278
1802.1678,0.013375
1804.0315,0.013127
1805.8952,0.013107
1807.7589,0.013371
1809.6225,0.013379
1811.4862,0.013435
1813.3499,0.013298
1815.2135,0.013202
1817.0772,0.013171
1818.9409,0.013202
1820.8045,0.013064
1822.6682,0.013218
1824.5319,0.013311
1826.3955,0.013243
1828.2592,0.013102
1830.1229,0.013191
1831.9865,0.013121
1833.8502,0.013033
1835.7139,0.013071
1837.5776,0.013119
1839.4412,0.012947
1841.3049,0.012987
1843.1686,0.013218
1845.0322,0.013575
1846.8959,0.013399
1848.7596,0.013115
1850.6232,0.013098
1852.4869,0.013540
1854.3506,0.013695
1856.2142,0.013633
1858.0779,0.013400
1859.9416,0.013327
1861.8052,0.013112
1863.6689,0.013142
1865.5326,0.013232
1867.3963,0.013581
1869.2599,0.013766
1871.1236,0.013708
1872.9873,0.013274
1874.8509,0.013438
1876.7146,0.013573
1878.5783,0.013617
1880.4419,0.013323
1882.3056,0.013233
1884.1693,0.013171
1886.0329,0.013129
1887.8966,0.013061
1889.7603,0.013559
1891.6240,0.013646
1893.4876,0.013389
1895.3513,0.013289
1897.2150,0.013345
1899.0786,0.013425
1900.9423,0.013485
1902.8060,0.013390
1904.6696,0.013388
1906.5333,0.013196
1908.3970,0.013539
1910.2606,0.013314
1912.1243,0.012908
1913.9880,0.013010
1915.8516,0.013340
1917.7153,0.013205
1919.5790,0.012842
1921.4427,0.012428
1923.3063,0.012640
1925.1700,0.012725
1927.0337,0.013139
1928.8973,0.012983
1930.7610,0.012871
1932.6247,0.012453
1934.4883,0.012416
1936.3520,0.012640
1938.2157,0.012921
1940.0793,0.012344
1941.9430,0.012007
1943.8067,0.010974
1945.6704,0.010689
1947.5340,0.011207
1949.3977,0.011833
1951.2614,0.011141
1953.1250,0.010836
1954.9887,0.010571
1956.8524,0.009832
1958.7160,0.009487
1960.5797,0.009914
1962.4434,0.009117
1964.3070,0.009235
1966.1707,0.008409
1968.0344,0.007009
1969.8980,0.006977
1971.7617,0.008580
1973.6254,0.008606
1975.4891,0.007991
1977.3527,0.007932
1979.2164,0.009226
1981.0801,0.008598
1982.9437,0.007835
1984.8074,0.007985
1986.6711,0.009139
1988.5347,0.010059
1990.3984,0.010731
1992.2621,0.010913
1994.1257,0.010431
1995.9894,0.009374
1997.8531,0.009895
1999.7167,0.010251
2001.5804,0.010503
2003.4441,0.010029
2005.3078,0.008843
2007.1714,0.006822
2009.0351,0.007231
2010.8988,0.008294
2012.7624,0.007637
2014.6261,0.007077
2016.4898,0.007736
2018.3534,0.007953
2020.2171,0.009915
2022.0808,0.009296
2023.9444,0.007685
2025.8081,0.006782
2027.6718,0.007237
2029.5355,0.006995
2031.3991,0.007232
2033.2628,0.007448
2035.1265,0.008161
2036.9901,0.009209
2038.8538,0.010544
2040.7175,0.009773
2042.5811,0.009296
2044.4448,0.010238
2046.3085,0.010920
2048.1721,0.010939
2050.0358,0.011723
2051.8995,0.012029
2053.7631,0.012785
2055.6268,0.012851
2057.4905,0.012083
2059.3542,0.012376
2061.2178,0.013075
2063.0815,0.013209
2064.9452,0.014323
2066.8088,0.014643
2068.6725,0.014171
2070.5362,0.013605
2072.3998,0.013762
2074.2635,0.014118
2076.1272,0.014519
2077.9908,0.014712
2079.8545,0.015415
2081.7182,0.015690
2083.5819,0.015931
2085.4455,0.016323
2087.3092,0.016031
2089.1729,0.015161
2091.0365,0.015388
2092.9002,0.016034
2094.7639,0.015927
2096.6275,0.015834
2098.4912,0.016138
2100.3549,0.015721
2102.2185,0.015197
2104.0822,0.015529
2105.9459,0.015798
2107.8095,0.015793
2109.6732,0.016119
2111.5369,0.015904
2113.4006,0.016099
2115.2642,0.016131
2117.1279,0.016355
2118.9916,0.016523
2120.8552,0.016606
2122.7189,0.016317
2124.5826,0.015914
2126.4462,0.015054
2128.3099,0.014612
2130.1736,0.015320
2132.0372,0.015038
2133.9009,0.013434
2135.7646,0.013223
2137.6282,0.013495
2139.4919,0.013677
2141.3556,0.013579
2143.2193,0.013326
2145.0829,0.012326
2146.9466,0.012744
2148.8103,0.013017
2150.6739,0.011936
2152.5376,0.010385
2154.4013,0.009949
2156.2649,0.009510
2158.1286,0.006725
2159.9923,0.005717
2161.8559,0.008244
2163.7196,0.010072
2165.5833,0.010078
2167.4470,0.010425
2169.3106,0.012472
2171.1743,0.012781
2173.0380,0.011253
2174.9016,0.010870
2176.7653,0.011737
2178.6290,0.012338
2180.4926,0.012141
2182.3563,0.012071
2184.2200,0.012599
2186.0836,0.012707
2187.9473,0.012862
2189.8110,0.012567
2191.6746,0.012760
2193.5383,0.013298
2195.4020,0.013926
2197.2657,0.013807
2199.1293,0.014097
2200.9930,0.014558
2202.8567,0.014338
2204.7203,0.014100
2206.5840,0.014618
2208.4477,0.014958
2210.3113,0.014301
2212.1750,0.014397
2214.0387,0.016442
2215.9023,0.016877
2217.7660,0.015965
2219.6297,0.015351
2221.4934,0.015524
2223.3570,0.015704
2225.2207,0.016860
2227.0844,0.017396
2228.9480,0.017046
2230.8117,0.017024
2232.6754,0.017068
2234.5390,0.016812
2236.4027,0.016464
2238.2664,0.016937
2240.1300,0.017563
2241.9937,0.017652
2243.8574,0.017953
2245.7210,0.017849
2247.5847,0.017002
2249.4484,0.017210
2251.3121,0.018430
2253.1757,0.018388
2255.0394,0.017773
2256.9031,0.017803
2258.7667,0.018442
2260.6304,0.018740
2262.4941,0.018980
2264.3577,0.019563
2266.2214,0.019966
2268.0851,0.019670
2269.9487,0.019953
2271.8124,0.019967
2273.6761,0.019975
2275.5397,0.020152
2277.4034,0.020474
2279.2671,0.021216
2281.1308,0.021729
2282.9944,0.021921
2284.8581,0.022009
2286.7218,0.021979
2288.5854,0.021811
2290.4491,0.021658
2292.3128,0.021855
2294.1764,0.022219
2296.0401,0.022033
2297.9038,0.021783
2299.7674,0.021921
2301.6311,0.022128
2303.4948,0.022255
2305.3585,0.022182
2307.2221,0.022394
2309.0858,0.022545
2310.9495,0.022478
2312.8131,0.022486
2314.6768,0.022682
2316.5405,0.022648
2318.4041,0.022561
2320.2678,0.022878
2322.1315,0.023132
2323.9951,0.022837
2325.8588,0.022235
2327.7225,0.021865
2329.5861,0.021694
2331.4498,0.021734
2333.3135,0.021739
2335.1772,0.021542
2337.0408,0.021757
2338.9045,0.022259
2340.7682,0.022204
2342.6318,0.022003
2344.4955,0.022325
2346.3592,0.022350
2348.2228,0.022098
2350.0865,0.021632
2351.9502,0.021424
2353.8138,0.021510
2355.6775,0.021816
2357.5412,0.022025
2359.4049,0.021875
2361.2685,0.021380
2363.1322,0.021514
2364.9959,0.021839
2366.8595,0.022078
2368.7232,0.022139
2370.5869,0.022269
2372.4505,0.022576
2374.3142,0.022640
2376.1779,0.022384
2378.0415,0.022394
2379.9052,0.022498
2381.7689,0.022822
2383.6325,0.022876
2385.4962,0.022527
2387.3599,0.022356
2389.2236,0.022387
2391.0872,0.022361
2392.9509,0.022321
2394.8146,0.022337
2396.6782,0.022455
2398.5419,0.022515
2400.4056,0.022579
2402.2692,0.022703
2404.1329,0.022597
2405.9966,0.022511
2407.8602,0.022512
2409.7239,0.022539
2411.5876,0.022799
2413.4512,0.022696
2415.3149,0.022796
2417.1786,0.022924
2419.0423,0.022952
2420.9059,0.022981
2422.7696,0.023161
2424.6333,0.023294
2426.4969,0.023489
2428.3606,0.023389
2430.2243,0.023145
2432.0879,0.023198
2433.9516,0.023424
2435.8153,0.023875
2437.6789,0.023951
2439.5426,0.023730
2441.4063,0.023766
2443.2700,0.023879
2445.1336,0.023669
2446.9973,0.023666
2448.8610,0.023793
2450.7246,0.023586
2452.5883,0.023521
2454.4520,0.023556
2456.3156,0.023591
2458.1793,0.023482
2460.0430,0.023351
2461.9066,0.023807
2463.7703,0.023651
2465.6340,0.022942
2467.4976,0.022736
2469.3613,0.023147
2471.2250,0.023467
2473.0887,0.023396
2474.9523,0.023114
2476.8160,0.023311
2478.6797,0.023682
2480.5433,0.023765
2482.4070,0.023640
2484.2707,0.023675
2486.1343,0.024124
2487.9980,0.024158
2489.8617,0.023819
2491.7253,0.023857
2493.5890,0.024132
2495.4527,0.024536
2497.3164,0.024588
2499.1800,0.024145
2501.0437,0.023915
2502.9074,0.024274
2504.7710,0.024887
2506.6347,0.024891
2508.4984,0.024738
2510.3620,0.024705
2512.2257,0.024669
2514.0894,0.024962
2515.9530,0.025173
2517.8167,0.025035
2519.6804,0.024763
2521.5440,0.024637
2523.4077,0.024860
2525.2714,0.025036
2527.1351,0.025308
