Wavenumber,Intensity
650.4205,0.191578
652.2841,0.188293
654.1478,0.184392
656.0115,0.178778
657.8751,0.176384
659.7388,0.172958
661.6025,0.170275
663.4661,0.168681
665.3298,0.166341
667.1935,0.167133
669.0571,0.169485
670.9208,0.165283
672.7845,0.164626
674.6481,0.165561
676.5118,0.165166
678.3755,0.163889
680.2392,0.163928
682.1028,0.164137
683.9665,0.164139
685.8302,0.163040
687.6938,0.162402
689.5575,0.162353
691.4212,0.162867
693.2848,0.163342
695.1485,0.164952
697.0122,0.165743
698.8758,0.166480
700.7395,0.166522
702.6032,0.165223
704.4669,0.162942
706.3305,0.159747
708.1942,0.154782
710.0579,0.149202
711.9215,0.142820
713.7852,0.136983
715.6489,0.132354
717.5125,0.128095
719.3762,0.123747
721.2399,0.119653
723.1035,0.115408
724.9672,0.111878
726.8309,0.108667
728.6945,0.105782
730.5582,0.104083
732.4219,0.101925
734.2856,0.098441
736.1492,0.096210
738.0129,0.094941
739.8766,0.094651
741.7402,0.096071
743.6039,0.097843
745.4676,0.098478
747.3312,0.098030
749.1949,0.096847
751.0586,0.095882
752.9222,0.094766
754.7859,0.093634
756.6496,0.092762
758.5132,0.092421
760.3769,0.091749
762.2406,0.090849
764.1043,0.090148
765.9679,0.089872
767.8316,0.089302
769.6953,0.089088
771.5589,0.089622
773.4226,0.090414
775.2863,0.090701
777.1499,0.091306
779.0136,0.092285
780.8773,0.093227
782.7409,0.094285
784.6046,0.095591
786.4683,0.096635
788.3320,0.097831
790.1956,0.099112
792.0593,0.100203
793.9230,0.100940
795.7866,0.102105
797.6503,0.103368
799.5140,0.104040
801.3776,0.103914
803.2413,0.103756
805.1050,0.103316
806.9686,0.102470
808.8323,0.101230
810.6960,0.099426
812.5596,0.096792
814.4233,0.094066
816.2870,0.091905
818.1507,0.090077
820.0143,0.088034
821.8780,0.086264
823.7417,0.085001
825.6053,0.084453
827.4690,0.084946
829.3327,0.085080
831.1963,0.081159
833.0600,0.073122
834.9237,0.066382
836.7873,0.063206
838.6510,0.061560
840.5147,0.060611
842.3784,0.060265
844.2420,0.059955
846.1057,0.059650
847.9694,0.059620
849.8330,0.059521
851.6967,0.059254
853.5604,0.059193
855.4240,0.059440
857.2877,0.059680
859.1514,0.059752
861.0150,0.059962
862.8787,0.060183
864.7424,0.060292
866.6060,0.060698
868.4697,0.061095
870.3334,0.061447
872.1971,0.061738
874.0607,0.062037
875.9244,0.062274
877.7881,0.062484
879.6517,0.062847
881.5154,0.063322
883.3791,0.063788
885.2427,0.064375
887.1064,0.064868
888.9701,0.065357
890.8337,0.065943
892.6974,0.066403
894.5611,0.066710
896.4247,0.066993
898.2884,0.067533
900.1521,0.068365
902.0158,0.069412
903.8794,0.070935
905.7431,0.073254
907.6068,0.076281
909.4704,0.079835
911.3341,0.084264
913.1978,0.089698
915.0614,0.092861
916.9251,0.088105
918.7888,0.077580
920.6524,0.069090
922.5161,0.065515
924.3798,0.064717
926.2435,0.064804
928.1071,0.065145
929.9708,0.065673
931.8345,0.066358
933.6981,0.067159
935.5618,0.068194
937.4255,0.069329
939.2891,0.070407
941.1528,0.071402
943.0165,0.072486
944.8801,0.073725
946.7438,0.074975
948.6075,0.076352
950.4711,0.077873
952.3348,0.079378
954.1985,0.080805
956.0622,0.082501
957.9258,0.084193
959.7895,0.085579
961.6532,0.087002
963.5168,0.088605
965.3805,0.090303
967.2442,0.092359
969.1078,0.094910
970.9715,0.097546
972.8352,0.100499
974.6988,0.104992
976.5625,0.112437
978.4262,0.124782
980.2899,0.142031
982.1535,0.150642
984.0172,0.134630
985.8809,0.111692
987.7445,0.101672
989.6082,0.101018
991.4719,0.102418
993.3355,0.104058
995.1992,0.105829
997.0629,0.107579
998.9265,0.109330
1000.7902,0.111077
1002.6539,0.112889
1004.5175,0.114853
1006.3812,0.116714
1008.2449,0.118464
1010.1086,0.120128
1011.9722,0.121675
1013.8359,0.123070
1015.6996,0.124180
1017.5632,0.125020
1019.4269,0.125749
1021.2906,0.126258
1023.1542,0.126574
1025.0179,0.126895
1026.8816,0.127192
1028.7452,0.127408
1030.6089,0.127726
1032.4726,0.128208
1034.3362,0.128785
1036.1999,0.129554
1038.0636,0.130770
1039.9273,0.132433
1041.7909,0.134434
1043.6546,0.136755
1045.5183,0.139053
1047.3819,0.140612
1049.2456,0.139994
1051.1093,0.135583
1052.9729,0.128181
1054.8366,0.120713
1056.7003,0.115414
1058.5639,0.112502
1060.4276,0.111096
1062.2913,0.110442
1064.1550,0.110154
1066.0186,0.110076
1067.8823,0.110225
1069.7460,0.110401
1071.6096,0.110491
1073.4733,0.110525
1075.3370,0.110522
1077.2006,0.110647
1079.0643,0.111101
1080.9280,0.111807
1082.7916,0.112751
1084.6553,0.113950
1086.5190,0.115321
1088.3826,0.116718
1090.2463,0.118163
1092.1100,0.119825
1093.9737,0.121875
1095.8373,0.124125
1097.7010,0.126785
1099.5647,0.129944
1101.4283,0.133260
1103.2920,0.136264
1105.1557,0.138187
1107.0193,0.137775
1108.8830,0.133932
1110.7467,0.126686
1112.6103,0.117521
1114.4740,0.108103
1116.3377,0.099514
1118.2014,0.092399
1120.0650,0.087122
1121.9287,0.083407
1123.7924,0.080711
1125.6560,0.078532
1127.5197,0.076419
1129.3834,0.074390
1131.2470,0.072641
1133.1107,0.071099
1134.9744,0.069756
1136.8380,0.068687
1138.7017,0.067926
1140.5654,0.067616
1142.4290,0.067686
1144.2927,0.067907
1146.1564,0.068180
1148.0201,0.068539
1149.8837,0.069126
1151.7474,0.069811
1153.6111,0.070332
1155.4747,0.070670
1157.3384,0.070882
1159.2021,0.070987
1161.0657,0.071052
1162.9294,0.071279
1164.7931,0.071923
1166.6567,0.072996
1168.5204,0.074326
1170.3841,0.075664
1172.2477,0.076288
1174.1114,0.075056
1175.9751,0.071671
1177.8388,0.067275
1179.7024,0.063508
1181.5661,0.061260
1183.4298,0.060274
1185.2934,0.059999
1187.1571,0.060189
1189.0208,0.060591
1190.8844,0.060961
1192.7481,0.061163
1194.6118,0.061192
1196.4754,0.061125
1198.3391,0.061072
1200.2028,0.061020
1202.0665,0.061031
1203.9301,0.061136
1205.7938,0.061366
1207.6575,0.061671
1209.5211,0.062049
1211.3848,0.062665
1213.2485,0.063520
1215.1121,0.064429
1216.9758,0.065401
1218.8395,0.066479
1220.7031,0.067539
1222.5668,0.068646
1224.4305,0.069876
1226.2941,0.071117
1228.1578,0.072319
1230.0215,0.073493
1231.8852,0.074717
1233.7488,0.075882
1235.6125,0.076774
1237.4762,0.077531
1239.3398,0.078248
1241.2035,0.078809
1243.0672,0.079366
1244.9308,0.079873
1246.7945,0.080241
1248.6582,0.080596
1250.5218,0.080988
1252.3855,0.081345
1254.2492,0.081647
1256.1129,0.081969
1257.9765,0.082423
1259.8402,0.083022
1261.7039,0.083566
1263.5675,0.084031
1265.4312,0.084499
1267.2949,0.084790
1269.1585,0.084792
1271.0222,0.084639
1272.8859,0.084406
1274.7495,0.084271
1276.6132,0.084579
1278.4769,0.085147
1280.3405,0.085779
1282.2042,0.086481
1284.0679,0.087197
1285.9316,0.088161
1287.7952,0.089564
1289.6589,0.091171
1291.5226,0.092965
1293.3862,0.095013
1295.2499,0.097491
1297.1136,0.100721
1298.9772,0.104742
1300.8409,0.109670
1302.7046,0.115149
1304.5682,0.119465
1306.4319,0.119914
1308.2956,0.113043
1310.1592,0.099030
1312.0229,0.084420
1313.8866,0.074604
1315.7503,0.070498
1317.6139,0.070153
1319.4776,0.071441
1321.3413,0.072954
1323.2049,0.074557
1325.0686,0.076450
1326.9323,0.078496
1328.7959,0.080545
1330.6596,0.082389
1332.5233,0.083802
1334.3869,0.084606
1336.2506,0.085203
1338.1143,0.086722
1339.9780,0.088830
1341.8416,0.089036
1343.7053,0.088568
1345.5690,0.088995
1347.4326,0.090021
1349.2963,0.091444
1351.1600,0.092902
1353.0236,0.094536
1354.8873,0.096884
1356.7510,0.099119
1358.6146,0.100775
1360.4783,0.103234
1362.3420,0.108128
1364.2056,0.111995
1366.0693,0.112958
1367.9330,0.115163
1369.7967,0.117985
1371.6603,0.119654
1373.5240,0.123182
1375.3877,0.127017
1377.2513,0.128190
1379.1150,0.130428
1380.9787,0.134033
1382.8423,0.137539
1384.7060,0.141432
1386.5697,0.148104
1388.4333,0.155666
1390.2970,0.158283
1392.1607,0.159660
1394.0244,0.161966
1395.8880,0.160357
1397.7517,0.154499
1399.6154,0.147729
1401.4790,0.140002
1403.3427,0.133508
1405.2064,0.124867
1407.0700,0.111865
1408.9337,0.098771
1410.7974,0.087204
1412.6610,0.078574
1414.5247,0.073882
1416.3884,0.073003
1418.2520,0.077114
1420.1157,0.083643
1421.9794,0.085119
1423.8431,0.083127
1425.7067,0.076420
1427.5704,0.069319
1429.4341,0.065302
1431.2977,0.063289
1433.1614,0.062021
1435.0251,0.062724
1436.8887,0.066239
1438.7524,0.067241
1440.6161,0.066696
1442.4797,0.067331
1444.3434,0.068033
1446.2071,0.068720
1448.0707,0.069429
1449.9344,0.067827
1451.7981,0.064954
1453.6618,0.061970
1455.5254,0.061669
1457.3891,0.066496
1459.2528,0.066858
1461.1164,0.063768
1462.9801,0.063076
1464.8438,0.064083
1466.7074,0.063224
1468.5711,0.060726
1470.4348,0.059690
1472.2984,0.061486
1474.1621,0.062853
1476.0258,0.061944
1477.8895,0.060830
1479.7531,0.060163
1481.6168,0.060427
1483.4805,0.060160
1485.3441,0.059681
1487.2078,0.060464
1489.0715,0.063307
1490.9351,0.065307
1492.7988,0.063610
1494.6625,0.062866
1496.5261,0.065282
1498.3898,0.067951
1500.2535,0.067716
1502.1171,0.066077
1503.9808,0.065072
1505.8445,0.068597
1507.7082,0.078772
1509.5718,0.076255
1511.4355,0.073931
1513.2992,0.073608
1515.1628,0.074570
1517.0265,0.076941
1518.8902,0.077752
1520.7538,0.079758
1522.6175,0.083330
1524.4812,0.082782
1526.3448,0.083721
1528.2085,0.084600
1530.0722,0.083646
1531.9359,0.084764
1533.7995,0.088355
1535.6632,0.087387
1537.5269,0.085785
1539.3905,0.090655
1541.2542,0.100584
1543.1179,0.099891
1544.9815,0.100017
1546.8452,0.099466
1548.7089,0.099829
1550.5725,0.102306
1552.4362,0.103564
1554.2999,0.104362
1556.1635,0.105980
1558.0272,0.113240
1559.8909,0.130990
1561.7546,0.122615
1563.6182,0.118824
1565.4819,0.120655
1567.3456,0.123208
1569.2092,0.128064
1571.0729,0.132601
1572.9366,0.131613
1574.8002,0.134756
1576.6639,0.144821
1578.5276,0.147584
1580.3912,0.146786
1582.2549,0.149328
1584.1186,0.152386
1585.9822,0.154622
1587.8459,0.156123
1589.7096,0.157387
1591.5733,0.158071
1593.4369,0.158138
1595.3006,0.157573
1597.1643,0.155925
1599.0279,0.153763
1600.8916,0.151852
1602.7553,0.149681
1604.6189,0.147009
1606.4826,0.144646
1608.3463,0.142912
1610.2099,0.140821
1612.0736,0.137412
1613.9373,0.133722
1615.8010,0.131563
1617.6646,0.127366
1619.5283,0.119655
1621.3920,0.114722
1623.2556,0.110881
1625.1193,0.104578
1626.9830,0.098097
1628.8466,0.091230
1630.7103,0.083770
1632.5740,0.077767
1634.4376,0.073711
1636.3013,0.069792
1638.1650,0.064686
1640.0286,0.062019
1641.8923,0.060399
1643.7560,0.059916
1645.6197,0.061472
1647.4833,0.064790
1649.3470,0.064190
1651.2107,0.064646
1653.0743,0.070937
1654.9380,0.074081
1656.8017,0.070421
1658.6653,0.069458
1660.5290,0.069564
1662.3927,0.069851
1664.2563,0.068319
1666.1200,0.065871
1667.9837,0.064719
1669.8474,0.064542
1671.7110,0.062935
1673.5747,0.062501
1675.4384,0.064415
1677.3020,0.065633
1679.1657,0.066202
1681.0294,0.068256
1682.8930,0.072225
1684.7567,0.078829
1686.6204,0.078975
1688.4840,0.077179
1690.3477,0.076254
1692.2114,0.073930
1694.0750,0.071876
1695.9387,0.070634
1697.8024,0.068038
1699.6661,0.066714
1701.5297,0.062111
1703.3934,0.056943
1705.2571,0.052566
1707.1207,0.046620
1708.9844,0.041910
1710.8481,0.038521
1712.7117,0.036029
1714.5754,0.034835
1716.4391,0.034422
1718.3027,0.034025
1720.1664,0.032167
1722.0301,0.030998
1723.8937,0.029626
1725.7574,0.027870
1727.6211,0.026208
1729.4848,0.024804
1731.3484,0.023247
1733.2121,0.022780
1735.0758,0.021364
1736.9394,0.019941
1738.8031,0.019381
1740.6668,0.018530
1742.5304,0.017581
1744.3941,0.016837
1746.2578,0.016215
1748.1214,0.015728
1749.9851,0.014972
1751.8488,0.014374
1753.7125,0.013584
1755.5761,0.013383
1757.4398,0.013229
1759.3035,0.013053
1761.1671,0.012878
1763.0308,0.012692
1764.8945,0.012338
1766.7581,0.012327
1768.6218,0.012147
1770.4855,0.012338
1772.3491,0.012704
1774.2128,0.012653
1776.0765,0.012146
1777.9401,0.012043
1779.8038,0.012393
1781.6675,0.012456
1783.5312,0.012385
1785.3948,0.012340
1787.2585,0.012181
1789.1222,0.012258
1790.9858,0.012661
1792.8495,0.012940
1794.7132,0.012753
1796.5768,0.012454
1798.4405,0.012323
1800.3042,0.012579
1802.1678,0.012672
1804.0315,0.012492
1805.8952,0.012324
1807.7589,0.012581
1809.6225,0.012872
1811.4862,0.012979
1813.3499,0.012721
1815.2135,0.012481
1817.0772,0.012315
1818.9409,0.012387
1820.8045,0.012472
1822.6682,0.012752
1824.5319,0.012907
1826.3955,0.012628
1828.2592,0.012443
1830.1229,0.012619
1831.9865,0.012554
1833.8502,0.012335
1835.7139,0.012175
1837.5776,0.012399
1839.4412,0.012376
1841.3049,0.012452
1843.1686,0.012530
1845.0322,0.012483
1846.8959,0.012526
1848.7596,0.012629
1850.6232,0.012466
1852.4869,0.012331
1854.3506,0.012335
1856.2142,0.012653
1858.0779,0.012713
1859.9416,0.012472
1861.8052,0.012207
1863.6689,0.012500
1865.5326,0.012606
1867.3963,0.012990
1869.2599,0.012890
1871.1236,0.012307
1872.9873,0.012275
1874.8509,0.012473
1876.7146,0.012525
1878.5783,0.012589
1880.4419,0.012160
1882.3056,0.011804
1884.1693,0.012097
1886.0329,0.012635
1887.8966,0.012477
1889.7603,0.012629
1891.6240,0.012946
1893.4876,0.012712
1895.3513,0.012292
1897.2150,0.012421
1899.0786,0.012361
1900.9423,0.012544
1902.8060,0.012628
1904.6696,0.012869
1906.5333,0.012585
1908.3970,0.012207
1910.2606,0.012414
1912.1243,0.012800
1913.9880,0.012470
1915.8516,0.012790
1917.7153,0.012912
1919.5790,0.012031
1921.4427,0.011628
1923.3063,0.012228
1925.1700,0.012260
1927.0337,0.012079
1928.8973,0.011989
1930.7610,0.012224
1932.6247,0.011987
1934.4883,0.012041
1936.3520,0.011828
1938.2157,0.011407
1940.0793,0.011333
1941.9430,0.011552
1943.8067,0.011427
1945.6704,0.010987
1947.5340,0.010408
1949.3977,0.011003
1951.2614,0.011318
1953.1250,0.011201
1954.9887,0.010241
1956.8524,0.009886
1958.7160,0.009215
1960.5797,0.008629
1962.4434,0.008255
1964.3070,0.008249
1966.1707,0.007451
1968.0344,0.006294
1969.8980,0.005123
1971.7617,0.006067
1973.6254,0.007530
1975.4891,0.008337
1977.3527,0.007779
1979.2164,0.008381
1981.0801,0.008579
1982.9437,0.008966
1984.8074,0.008834
1986.6711,0.009166
1988.5347,0.009414
1990.3984,0.009665
1992.2621,0.009854
1994.1257,0.009495
1995.9894,0.009201
1997.8531,0.009814
1999.7167,0.009670
2001.5804,0.008728
2003.4441,0.008196
2005.3078,0.009038
2007.1714,0.008574
2009.0351,0.007693
2010.8988,0.006516
2012.7624,0.006814
2014.6261,0.006581
2016.4898,0.006441
2018.3534,0.006229
2020.2171,0.007274
2022.0808,0.007768
2023.9444,0.007400
2025.8081,0.007397
2027.6718,0.007101
2029.5355,0.006682
2031.3991,0.006667
2033.2628,0.006097
2035.1265,0.007273
2036.9901,0.008293
2038.8538,0.008293
2040.7175,0.008480
2042.5811,0.009110
2044.4448,0.008976
2046.3085,0.010423
2048.1721,0.011409
2050.0358,0.012023
2051.8995,0.012238
2053.7631,0.011978
2055.6268,0.012224
2057.4905,0.012964
2059.3542,0.012934
2061.2178,0.013442
2063.0815,0.013631
2064.9452,0.013506
2066.8088,0.013212
2068.6725,0.013392
2070.5362,0.013650
2072.3998,0.013906
2074.2635,0.013878
2076.1272,0.013894
2077.9908,0.014047
2079.8545,0.014692
2081.7182,0.014501
2083.5819,0.014972
2085.4455,0.015569
2087.3092,0.015266
2089.1729,0.014571
2091.0365,0.014595
2092.9002,0.014713
2094.7639,0.015275
2096.6275,0.015467
2098.4912,0.015246
2100.3549,0.015014
2102.2185,0.014738
2104.0822,0.014907
2105.9459,0.015531
2107.8095,0.015826
2109.6732,0.015911
2111.5369,0.016015
2113.4006,0.016189
2115.2642,0.016085
2117.1279,0.015875
2118.9916,0.015266
2120.8552,0.014995
2122.7189,0.015073
2124.5826,0.014850
2126.4462,0.014115
2128.3099,0.014699
2130.1736,0.015553
2132.0372,0.014927
2133.9009,0.013939
2135.7646,0.013311
2137.6282,0.012621
2139.4919,0.013067
2141.3556,0.013521
2143.2193,0.013096
2145.0829,0.012313
2146.9466,0.011664
2148.8103,0.010345
2150.6739,0.009802
2152.5376,0.008497
2154.4013,0.007679
2156.2649,0.007836
2158.1286,0.006506
2159.9923,0.005838
2161.8559,0.008299
2163.7196,0.009739
2165.5833,0.010548
2167.4470,0.010880
2169.3106,0.011524
2171.1743,0.011176
2173.0380,0.010136
2174.9016,0.009310
2176.7653,0.010363
2178.6290,0.011190
2180.4926,0.011674
2182.3563,0.012189
2184.2200,0.013133
2186.0836,0.013375
2187.9473,0.012564
2189.8110,0.010984
2191.6746,0.011237
2193.5383,0.012679
2195.4020,0.013523
2197.2657,0.012862
2199.1293,0.013013
2200.9930,0.013955
2202.8567,0.014320
2204.7203,0.014178
2206.5840,0.013994
2208.4477,0.014743
2210.3113,0.015571
2212.1750,0.015265
2214.0387,0.015048
2215.9023,0.014708
2217.7660,0.014410
2219.6297,0.014529
2221.4934,0.015333
2223.3570,0.015429
2225.2207,0.015044
2227.0844,0.015458
2228.9480,0.015871
2230.8117,0.016227
2232.6754,0.017140
2234.5390,0.017545
2236.4027,0.017463
2238.2664,0.017161
2240.1300,0.017069
2241.9937,0.016835
2243.8574,0.017574
2245.7210,0.017735
2247.5847,0.017345
2249.4484,0.017150
2251.3121,0.017144
2253.1757,0.017358
2255.0394,0.017771
2256.9031,0.018182
2258.7667,0.018469
2260.6304,0.018248
2262.4941,0.018389
2264.3577,0.018724
2266.2214,0.018749
2268.0851,0.018836
2269.9487,0.019288
2271.8124,0.019539
2273.6761,0.019874
2275.5397,0.020170
2277.4034,0.020151
2279.2671,0.020594
2281.1308,0.020941
2282.9944,0.021197
2284.8581,0.021727
2286.7218,0.021806
2288.5854,0.021283
2290.4491,0.020960
2292.3128,0.021072
2294.1764,0.021425
2296.0401,0.021646
2297.9038,0.021592
2299.7674,0.021377
2301.6311,0.021286
2303.4948,0.021711
2305.3585,0.022175
2307.2221,0.022089
2309.0858,0.021828
2310.9495,0.022005
2312.8131,0.022133
2314.6768,0.022103
2316.5405,0.021880
2318.4041,0.022001
2320.2678,0.022360
2322.1315,0.022478
2323.9951,0.022535
2325.8588,0.022011
2327.7225,0.021292
2329.5861,0.021194
2331.4498,0.021257
2333.3135,0.021189
2335.1772,0.020952
2337.0408,0.020835
2338.9045,0.020944
2340.7682,0.021238
2342.6318,0.021822
2344.4955,0.022095
2346.3592,0.021807
2348.2228,0.021113
2350.0865,0.020639
2351.9502,0.020651
2353.8138,0.020892
2355.6775,0.021003
2357.5412,0.020689
2359.4049,0.020817
2361.2685,0.020995
2363.1322,0.021175
2364.9959,0.020774
2366.8595,0.020756
2368.7232,0.021502
2370.5869,0.021640
2372.4505,0.021612
2374.3142,0.021599
2376.1779,0.021511
2378.0415,0.021518
2379.9052,0.021719
2381.7689,0.021978
2383.6325,0.021941
2385.4962,0.021707
2387.3599,0.021583
2389.2236,0.021926
2391.0872,0.021973
2392.9509,0.021818
2394.8146,0.021738
2396.6782,0.021722
2398.5419,0.021898
2400.4056,0.022133
2402.2692,0.022080
2404.1329,0.021834
2405.9966,0.021783
2407.8602,0.021980
2409.7239,0.022237
2411.5876,0.022419
2413.4512,0.022260
2415.3149,0.022270
2417.1786,0.022536
2419.0423,0.022669
2420.9059,0.022781
2422.7696,0.022497
2424.6333,0.022465
2426.4969,0.022776
2428.3606,0.022836
2430.2243,0.022933
2432.0879,0.022967
2433.9516,0.022944
2435.8153,0.022884
2437.6789,0.022844
2439.5426,0.023103
2441.4063,0.023041
2443.2700,0.022955
2445.1336,0.023005
2446.9973,0.022868
2448.8610,0.022991
2450.7246,0.023098
2452.5883,0.023029
2454.4520,0.022940
2456.3156,0.023245
2458.1793,0.023232
2460.0430,0.023170
2461.9066,0.022992
2463.7703,0.022935
2465.6340,0.023131
2467.4976,0.022927
2469.3613,0.022678
2471.2250,0.022926
2473.0887,0.023017
2474.9523,0.022783
2476.8160,0.022969
2478.6797,0.022978
2480.5433,0.022830
2482.4070,0.023023
2484.2707,0.023187
2486.1343,0.023312
2487.9980,0.023447
2489.8617,0.023385
2491.7253,0.023588
2493.5890,0.023854
2495.4527,0.023776
2497.3164,0.023977
2499.1800,0.024277
2501.0437,0.024077
2502.9074,0.023898
2504.7710,0.023807
2506.6347,0.024179
2508.4984,0.024540
2510.3620,0.024387
2512.2257,0.024219
2514.0894,0.024264
2515.9530,0.024413
2517.8167,0.024500
2519.6804,0.024815
2521.5440,0.024981
2523.4077,0.024969
2525.2714,0.024891
2527.1351,0.024769
