Wavenumber,Intensity
650.4205,0.171392
652.2841,0.167169
654.1478,0.168862
656.0115,0.169870
657.8751,0.169379
659.7388,0.171238
661.6025,0.175134
663.4661,0.176579
665.3298,0.176758
667.1935,0.178783
669.0571,0.179406
670.9208,0.175091
672.7845,0.170388
674.6481,0.165442
676.5118,0.162583
678.3755,0.160343
680.2392,0.158011
682.1028,0.154403
683.9665,0.152271
685.8302,0.151816
687.6938,0.151365
689.5575,0.150895
691.4212,0.150402
693.2848,0.148715
695.1485,0.148177
697.0122,0.148992
698.8758,0.151177
700.7395,0.153523
702.6032,0.154492
704.4669,0.152219
706.3305,0.146513
708.1942,0.138684
710.0579,0.130925
711.9215,0.124113
713.7852,0.117880
715.6489,0.111660
717.5125,0.106612
719.3762,0.102726
721.2399,0.098972
723.1035,0.094997
724.9672,0.091974
726.8309,0.089227
728.6945,0.086982
730.5582,0.085792
732.4219,0.085150
734.2856,0.083003
736.1492,0.079228
738.0129,0.076339
739.8766,0.076567
741.7402,0.079227
743.6039,0.081233
745.4676,0.081095
747.3312,0.079531
749.1949,0.077793
751.0586,0.076848
752.9222,0.075863
754.7859,0.074640
756.6496,0.074102
758.5132,0.074316
760.3769,0.074564
762.2406,0.075172
764.1043,0.075233
765.9679,0.074437
767.8316,0.073707
769.6953,0.073253
771.5589,0.073071
773.4226,0.073630
775.2863,0.074297
777.1499,0.074802
779.0136,0.075796
780.8773,0.076902
782.7409,0.078095
784.6046,0.080084
786.4683,0.082569
788.3320,0.084010
790.1956,0.084165
792.0593,0.084700
793.9230,0.086365
795.7866,0.088447
797.6503,0.090403
799.5140,0.092168
801.3776,0.093937
803.2413,0.094871
805.1050,0.094086
806.9686,0.092500
808.8323,0.090866
810.6960,0.088989
812.5596,0.086482
814.4233,0.083978
816.2870,0.081975
818.1507,0.079888
820.0143,0.077732
821.8780,0.076241
823.7417,0.075661
825.6053,0.076298
827.4690,0.077877
829.3327,0.079051
831.1963,0.075479
833.0600,0.066923
834.9237,0.059218
836.7873,0.055468
838.6510,0.054399
840.5147,0.054241
842.3784,0.054154
844.2420,0.054256
846.1057,0.054703
847.9694,0.055367
849.8330,0.056458
851.6967,0.058312
853.5604,0.060825
855.4240,0.063497
857.2877,0.065137
859.1514,0.064358
861.0150,0.062080
862.8787,0.060263
864.7424,0.058956
866.6060,0.057854
868.4697,0.056960
870.3334,0.056374
872.1971,0.056350
874.0607,0.056486
875.9244,0.056667
877.7881,0.057105
879.6517,0.057544
881.5154,0.058199
883.3791,0.058899
885.2427,0.059306
887.1064,0.059832
888.9701,0.060651
890.8337,0.061612
892.6974,0.062632
894.5611,0.063826
896.4247,0.065534
898.2884,0.067752
900.1521,0.070502
902.0158,0.073883
903.8794,0.077256
905.7431,0.080231
907.6068,0.083278
909.4704,0.086806
911.3341,0.091277
913.1978,0.096635
915.0614,0.098882
916.9251,0.092216
918.7888,0.079760
920.6524,0.070189
922.5161,0.066267
924.3798,0.065614
926.2435,0.066091
928.1071,0.067115
929.9708,0.068821
931.8345,0.071222
933.6981,0.073871
935.5618,0.075964
937.4255,0.076535
939.2891,0.075838
941.1528,0.075179
943.0165,0.075226
944.8801,0.075904
946.7438,0.077029
948.6075,0.078283
950.4711,0.079618
952.3348,0.081288
954.1985,0.083367
956.0622,0.085528
957.9258,0.087019
959.7895,0.087830
961.6532,0.088712
963.5168,0.090013
965.3805,0.091789
967.2442,0.094167
969.1078,0.097009
970.9715,0.100053
972.8352,0.103645
974.6988,0.108840
976.5625,0.117031
978.4262,0.130220
980.2899,0.147836
982.1535,0.155381
984.0172,0.137946
985.8809,0.113640
987.7445,0.102566
989.6082,0.101318
991.4719,0.102720
993.3355,0.105046
995.1992,0.107913
997.0629,0.111158
998.9265,0.114518
1000.7902,0.117466
1002.6539,0.119727
1004.5175,0.121966
1006.3812,0.124906
1008.2449,0.128117
1010.1086,0.130301
1011.9722,0.130624
1013.8359,0.129383
1015.6996,0.127053
1017.5632,0.123928
1019.4269,0.120929
1021.2906,0.118416
1023.1542,0.116241
1025.0179,0.114668
1026.8816,0.113799
1028.7452,0.113198
1030.6089,0.112090
1032.4726,0.110238
1034.3362,0.108530
1036.1999,0.107692
1038.0636,0.107619
1039.9273,0.108025
1041.7909,0.108787
1043.6546,0.109968
1045.5183,0.111623
1047.3819,0.112810
1049.2456,0.111535
1051.1093,0.106471
1052.9729,0.098783
1054.8366,0.091600
1056.7003,0.086852
1058.5639,0.084356
1060.4276,0.083311
1062.2913,0.082866
1064.1550,0.082666
1066.0186,0.082843
1067.8823,0.083459
1069.7460,0.084526
1071.6096,0.085842
1073.4733,0.087045
1075.3370,0.088070
1077.2006,0.089090
1079.0643,0.090255
1080.9280,0.091589
1082.7916,0.093066
1084.6553,0.094802
1086.5190,0.096895
1088.3826,0.099307
1090.2463,0.102089
1092.1100,0.105332
1093.9737,0.109003
1095.8373,0.113174
1097.7010,0.118027
1099.5647,0.123219
1101.4283,0.128166
1103.2920,0.132140
1105.1557,0.134401
1107.0193,0.134199
1108.8830,0.130627
1110.7467,0.123746
1112.6103,0.114850
1114.4740,0.105395
1116.3377,0.096794
1118.2014,0.089945
1120.0650,0.085052
1121.9287,0.082014
1123.7924,0.080215
1125.6560,0.078738
1127.5197,0.076852
1129.3834,0.074460
1131.2470,0.072011
1133.1107,0.069836
1134.9744,0.068053
1136.8380,0.066829
1138.7017,0.066207
1140.5654,0.065999
1142.4290,0.066023
1144.2927,0.065854
1146.1564,0.065079
1148.0201,0.064006
1149.8837,0.063203
1151.7474,0.063055
1153.6111,0.063620
1155.4747,0.064781
1157.3384,0.066044
1159.2021,0.066429
1161.0657,0.065820
1162.9294,0.065311
1164.7931,0.065753
1166.6567,0.067174
1168.5204,0.069333
1170.3841,0.071939
1172.2477,0.073971
1174.1114,0.073945
1175.9751,0.071432
1177.8388,0.067704
1179.7024,0.064599
1181.5661,0.063053
1183.4298,0.062948
1185.2934,0.063825
1187.1571,0.065175
1189.0208,0.066496
1190.8844,0.067077
1192.7481,0.066223
1194.6118,0.064513
1196.4754,0.063082
1198.3391,0.062281
1200.2028,0.061954
1202.0665,0.061697
1203.9301,0.061291
1205.7938,0.060856
1207.6575,0.060534
1209.5211,0.060447
1211.3848,0.060504
1213.2485,0.060623
1215.1121,0.060844
1216.9758,0.061087
1218.8395,0.061449
1220.7031,0.062036
1222.5668,0.062641
1224.4305,0.063073
1226.2941,0.063130
1228.1578,0.062982
1230.0215,0.063048
1231.8852,0.063246
1233.7488,0.063542
1235.6125,0.064057
1237.4762,0.064775
1239.3398,0.065705
1241.2035,0.066474
1243.0672,0.066611
1244.9308,0.066326
1246.7945,0.066193
1248.6582,0.066420
1250.5218,0.066894
1252.3855,0.067548
1254.2492,0.068359
1256.1129,0.069246
1257.9765,0.070074
1259.8402,0.070863
1261.7039,0.071859
1263.5675,0.073049
1265.4312,0.073989
1267.2949,0.074116
1269.1585,0.073604
1271.0222,0.073134
1272.8859,0.073039
1274.7495,0.073408
1276.6132,0.074269
1278.4769,0.075608
1280.3405,0.077547
1282.2042,0.080156
1284.0679,0.083198
1285.9316,0.086014
1287.7952,0.087911
1289.6589,0.089190
1291.5226,0.090639
1293.3862,0.092356
1295.2499,0.094704
1297.1136,0.098292
1298.9772,0.103270
1300.8409,0.109619
1302.7046,0.116672
1304.5682,0.122166
1306.4319,0.122481
1308.2956,0.114586
1310.1592,0.099616
1312.0229,0.084131
1313.8866,0.074188
1315.7503,0.070629
1317.6139,0.070730
1319.4776,0.072619
1321.3413,0.074705
1323.2049,0.076436
1325.0686,0.078374
1326.9323,0.080386
1328.7959,0.082313
1330.6596,0.084173
1332.5233,0.085507
1334.3869,0.085913
1336.2506,0.086394
1338.1143,0.088383
1339.9780,0.090805
1341.8416,0.090695
1343.7053,0.088949
1345.5690,0.088010
1347.4326,0.088600
1349.2963,0.090329
1351.1600,0.092021
1353.0236,0.093140
1354.8873,0.094507
1356.7510,0.096470
1358.6146,0.098760
1360.4783,0.101293
1362.3420,0.103608
1364.2056,0.104442
1366.0693,0.104714
1367.9330,0.106744
1369.7967,0.109649
1371.6603,0.112175
1373.5240,0.115945
1375.3877,0.120394
1377.2513,0.123353
1379.1150,0.126964
1380.9787,0.131340
1382.8423,0.135556
1384.7060,0.140408
1386.5697,0.146897
1388.4333,0.154001
1390.2970,0.158244
1392.1607,0.160939
1394.0244,0.162246
1395.8880,0.159283
1397.7517,0.153187
1399.6154,0.145874
1401.4790,0.139104
1403.3427,0.133725
1405.2064,0.125529
1407.0700,0.113489
1408.9337,0.100886
1410.7974,0.088874
1412.6610,0.080167
1414.5247,0.076285
1416.3884,0.076613
1418.2520,0.081196
1420.1157,0.088246
1421.9794,0.091293
1423.8431,0.089430
1425.7067,0.081226
1427.5704,0.071865
1429.4341,0.065542
1431.2977,0.062143
1433.1614,0.061006
1435.0251,0.061958
1436.8887,0.065481
1438.7524,0.067820
1440.6161,0.068158
1442.4797,0.069075
1444.3434,0.070349
1446.2071,0.071949
1448.0707,0.073651
1449.9344,0.073811
1451.7981,0.072199
1453.6618,0.070064
1455.5254,0.069543
1457.3891,0.073538
1459.2528,0.076826
1461.1164,0.077424
1462.9801,0.079090
1464.8438,0.080608
1466.7074,0.078855
1468.5711,0.076223
1470.4348,0.075347
1472.2984,0.076391
1474.1621,0.076892
1476.0258,0.075850
1477.8895,0.075218
1479.7531,0.075040
1481.6168,0.076097
1483.4805,0.077328
1485.3441,0.078331
1487.2078,0.080087
1489.0715,0.082609
1490.9351,0.083970
1492.7988,0.083304
1494.6625,0.083644
1496.5261,0.086240
1498.3898,0.088180
1500.2535,0.087883
1502.1171,0.086675
1503.9808,0.085978
1505.8445,0.088169
1507.7082,0.091684
1509.5718,0.088174
1511.4355,0.086320
1513.2992,0.085748
1515.1628,0.085912
1517.0265,0.087100
1518.8902,0.087886
1520.7538,0.089414
1522.6175,0.092478
1524.4812,0.093238
1526.3448,0.094613
1528.2085,0.095583
1530.0722,0.095417
1531.9359,0.095819
1533.7995,0.096943
1535.6632,0.096094
1537.5269,0.095750
1539.3905,0.099025
1541.2542,0.103951
1543.1179,0.104176
1544.9815,0.104981
1546.8452,0.105504
1548.7089,0.106180
1550.5725,0.107524
1552.4362,0.108387
1554.2999,0.109191
1556.1635,0.110801
1558.0272,0.115216
1559.8909,0.122928
1561.7546,0.120495
1563.6182,0.120299
1565.4819,0.122505
1567.3456,0.125269
1569.2092,0.128957
1571.0729,0.132479
1572.9366,0.133707
1574.8002,0.137030
1576.6639,0.142711
1578.5276,0.145223
1580.3912,0.146337
1582.2549,0.148806
1584.1186,0.151034
1585.9822,0.152788
1587.8459,0.153975
1589.7096,0.154872
1591.5733,0.155300
1593.4369,0.155555
1595.3006,0.155392
1597.1643,0.154519
1599.0279,0.152855
1600.8916,0.150811
1602.7553,0.148432
1604.6189,0.145770
1606.4826,0.143137
1608.3463,0.140750
1610.2099,0.138321
1612.0736,0.135949
1613.9373,0.134006
1615.8010,0.132252
1617.6646,0.127497
1619.5283,0.122231
1621.3920,0.119480
1623.2556,0.115322
1625.1193,0.108776
1626.9830,0.102797
1628.8466,0.095183
1630.7103,0.086716
1632.5740,0.080281
1634.4376,0.074598
1636.3013,0.066922
1638.1650,0.060773
1640.0286,0.058936
1641.8923,0.057638
1643.7560,0.057183
1645.6197,0.057409
1647.4833,0.057695
1649.3470,0.057233
1651.2107,0.058212
1653.0743,0.061531
1654.9380,0.063101
1656.8017,0.062325
1658.6653,0.062831
1660.5290,0.063223
1662.3927,0.063112
1664.2563,0.061845
1666.1200,0.060612
1667.9837,0.059679
1669.8474,0.058617
1671.7110,0.057634
1673.5747,0.057995
1675.4384,0.059486
1677.3020,0.061671
1679.1657,0.063810
1681.0294,0.067154
1682.8930,0.070773
1684.7567,0.074464
1686.6204,0.075062
1688.4840,0.074945
1690.3477,0.074017
1692.2114,0.072184
1694.0750,0.070462
1695.9387,0.068043
1697.8024,0.064229
1699.6661,0.062006
1701.5297,0.056114
1703.3934,0.051343
1705.2571,0.046201
1707.1207,0.038992
1708.9844,0.033823
1710.8481,0.030143
1712.7117,0.027302
1714.5754,0.025635
1716.4391,0.023696
1718.3027,0.021995
1720.1664,0.020992
1722.0301,0.020514
1723.8937,0.019341
1725.7574,0.017914
1727.6211,0.016496
1729.4848,0.015390
1731.3484,0.014406
1733.2121,0.013609
1735.0758,0.012258
1736.9394,0.011663
1738.8031,0.011509
1740.6668,0.011315
1742.5304,0.010896
1744.3941,0.010815
1746.2578,0.010552
1748.1214,0.010265
1749.9851,0.009922
1751.8488,0.009771
1753.7125,0.009602
1755.5761,0.009737
1757.4398,0.009697
1759.3035,0.009573
1761.1671,0.009412
1763.0308,0.009447
1764.8945,0.009350
1766.7581,0.009339
1768.6218,0.009142
1770.4855,0.008951
1772.3491,0.008715
1774.2128,0.008649
1776.0765,0.008564
1777.9401,0.008714
1779.8038,0.008737
1781.6675,0.008743
1783.5312,0.008763
1785.3948,0.008961
1787.2585,0.008888
1789.1222,0.008996
1790.9858,0.009064
1792.8495,0.009127
1794.7132,0.008960
1796.5768,0.008968
1798.4405,0.008994
1800.3042,0.009071
1802.1678,0.008948
1804.0315,0.008949
1805.8952,0.009014
1807.7589,0.009155
1809.6225,0.009152
1811.4862,0.009141
1813.3499,0.009063
1815.2135,0.009046
1817.0772,0.008948
1818.9409,0.009194
1820.8045,0.009293
1822.6682,0.009389
1824.5319,0.009305
1826.3955,0.009112
1828.2592,0.008819
1830.1229,0.008790
1831.9865,0.008643
1833.8502,0.008763
1835.7139,0.008671
1837.5776,0.008683
1839.4412,0.008754
1841.3049,0.008950
1843.1686,0.008825
1845.0322,0.008894
1846.8959,0.008778
1848.7596,0.008746
1850.6232,0.008886
1852.4869,0.009129
1854.3506,0.008973
1856.2142,0.009036
1858.0779,0.009209
1859.9416,0.009277
1861.8052,0.008969
1863.6689,0.009022
1865.5326,0.009102
1867.3963,0.009138
1869.2599,0.009098
1871.1236,0.009051
1872.9873,0.008982
1874.8509,0.008921
1876.7146,0.008686
1878.5783,0.008867
1880.4419,0.008752
1882.3056,0.009010
1884.1693,0.009251
1886.0329,0.009270
1887.8966,0.008996
1889.7603,0.009032
1891.6240,0.008944
1893.4876,0.009239
1895.3513,0.009122
1897.2150,0.008679
1899.0786,0.008602
1900.9423,0.008943
1902.8060,0.008751
1904.6696,0.008812
1906.5333,0.008935
1908.3970,0.008864
1910.2606,0.008378
1912.1243,0.008861
1913.9880,0.009216
1915.8516,0.009013
1917.7153,0.008560
1919.5790,0.008828
1921.4427,0.008836
1923.3063,0.008650
1925.1700,0.008238
1927.0337,0.008535
1928.8973,0.008895
1930.7610,0.009463
1932.6247,0.009443
1934.4883,0.008733
1936.3520,0.007734
1938.2157,0.008147
1940.0793,0.008902
1941.9430,0.008792
1943.8067,0.008079
1945.6704,0.008036
1947.5340,0.007088
1949.3977,0.006724
1951.2614,0.006686
1953.1250,0.006921
1954.9887,0.007358
1956.8524,0.007381
1958.7160,0.006500
1960.5797,0.005758
1962.4434,0.005378
1964.3070,0.005637
1966.1707,0.004198
1968.0344,0.002962
1969.8980,0.003875
1971.7617,0.004323
1973.6254,0.002325
1975.4891,0.002595
1977.3527,0.003743
1979.2164,0.005264
1981.0801,0.005113
1982.9437,0.004823
1984.8074,0.004699
1986.6711,0.005620
1988.5347,0.005540
1990.3984,0.006364
1992.2621,0.007477
1994.1257,0.007309
1995.9894,0.006817
1997.8531,0.006501
1999.7167,0.004722
2001.5804,0.004216
2003.4441,0.004505
2005.3078,0.004542
2007.1714,0.004480
2009.0351,0.005705
2010.8988,0.005185
2012.7624,0.004773
2014.6261,0.004069
2016.4898,0.003312
2018.3534,0.003217
2020.2171,0.005059
2022.0808,0.005477
2023.9444,0.004921
2025.8081,0.004506
2027.6718,0.004757
2029.5355,0.003974
2031.3991,0.003315
2033.2628,0.002374
2035.1265,0.003737
2036.9901,0.004980
2038.8538,0.006066
2040.7175,0.005564
2042.5811,0.004696
2044.4448,0.004748
2046.3085,0.006304
2048.1721,0.007302
2050.0358,0.008031
2051.8995,0.008333
2053.7631,0.009121
2055.6268,0.009119
2057.4905,0.009020
2059.3542,0.009374
2061.2178,0.009969
2063.0815,0.009146
2064.9452,0.009023
2066.8088,0.009573
2068.6725,0.010172
2070.5362,0.010815
2072.3998,0.011390
2074.2635,0.010993
2076.1272,0.011279
2077.9908,0.011393
2079.8545,0.010961
2081.7182,0.011030
2083.5819,0.011884
2085.4455,0.012277
2087.3092,0.011665
2089.1729,0.011469
2091.0365,0.011905
2092.9002,0.012073
2094.7639,0.012031
2096.6275,0.011758
2098.4912,0.012190
2100.3549,0.012355
2102.2185,0.012713
2104.0822,0.012237
2105.9459,0.011892
2107.8095,0.012028
2109.6732,0.012193
2111.5369,0.012465
2113.4006,0.013112
2115.2642,0.013108
2117.1279,0.012680
2118.9916,0.012520
2120.8552,0.012661
2122.7189,0.012424
2124.5826,0.012328
2126.4462,0.012293
2128.3099,0.012499
2130.1736,0.011355
2132.0372,0.010033
2133.9009,0.010040
2135.7646,0.011225
2137.6282,0.011154
2139.4919,0.009844
2141.3556,0.009406
2143.2193,0.009503
2145.0829,0.009034
2146.9466,0.008712
2148.8103,0.007006
2150.6739,0.006383
2152.5376,0.007334
2154.4013,0.007109
2156.2649,0.005088
2158.1286,0.004069
2159.9923,0.002850
2161.8559,0.004341
2163.7196,0.005408
2165.5833,0.005507
2167.4470,0.006611
2169.3106,0.008057
2171.1743,0.007304
2173.0380,0.006684
2174.9016,0.007336
2176.7653,0.008107
2178.6290,0.007408
2180.4926,0.007282
2182.3563,0.007965
2184.2200,0.008728
2186.0836,0.009435
2187.9473,0.010413
2189.8110,0.009899
2191.6746,0.009068
2193.5383,0.009463
2195.4020,0.009990
2197.2657,0.009289
2199.1293,0.008410
2200.9930,0.008678
2202.8567,0.010297
2204.7203,0.011228
2206.5840,0.011423
2208.4477,0.011217
2210.3113,0.011355
2212.1750,0.011196
2214.0387,0.010926
2215.9023,0.010737
2217.7660,0.011471
2219.6297,0.011639
2221.4934,0.011667
2223.3570,0.011551
2225.2207,0.011980
2227.0844,0.012051
2228.9480,0.012329
2230.8117,0.012298
2232.6754,0.013271
2234.5390,0.013451
2236.4027,0.012509
2238.2664,0.012251
2240.1300,0.013195
2241.9937,0.013574
2243.8574,0.013569
2245.7210,0.013480
2247.5847,0.014017
2249.4484,0.014560
2251.3121,0.014409
2253.1757,0.014138
2255.0394,0.014228
2256.9031,0.014763
2258.7667,0.014990
2260.6304,0.014951
2262.4941,0.015029
2264.3577,0.014426
2266.2214,0.014737
2268.0851,0.015028
2269.9487,0.014886
2271.8124,0.015737
2273.6761,0.016762
2275.5397,0.017156
2277.4034,0.017138
2279.2671,0.017230
2281.1308,0.017537
2282.9944,0.017591
2284.8581,0.017742
2286.7218,0.017915
2288.5854,0.017765
2290.4491,0.017758
2292.3128,0.018032
2294.1764,0.018100
2296.0401,0.017879
2297.9038,0.017602
2299.7674,0.017736
2301.6311,0.018002
2303.4948,0.018169
2305.3585,0.018105
2307.2221,0.018249
2309.0858,0.018543
2310.9495,0.018598
2312.8131,0.018537
2314.6768,0.018118
2316.5405,0.017965
2318.4041,0.018435
2320.2678,0.018579
2322.1315,0.018627
2323.9951,0.018877
2325.8588,0.018844
2327.7225,0.018249
2329.5861,0.017730
2331.4498,0.017503
2333.3135,0.017270
2335.1772,0.017304
2337.0408,0.017812
2338.9045,0.018072
2340.7682,0.018118
2342.6318,0.017868
2344.4955,0.017484
2346.3592,0.017395
2348.2228,0.017500
2350.0865,0.017528
2351.9502,0.017670
2353.8138,0.017725
2355.6775,0.017249
2357.5412,0.017097
2359.4049,0.017427
2361.2685,0.017346
2363.1322,0.017255
2364.9959,0.017046
2366.8595,0.017182
2368.7232,0.017723
2370.5869,0.018165
2372.4505,0.018184
2374.3142,0.018007
2376.1779,0.018375
2378.0415,0.018715
2379.9052,0.018604
2381.7689,0.018752
2383.6325,0.019005
2385.4962,0.018974
2387.3599,0.018793
2389.2236,0.019018
2391.0872,0.019143
2392.9509,0.018871
2394.8146,0.018689
2396.6782,0.018818
2398.5419,0.018966
2400.4056,0.019326
2402.2692,0.019468
2404.1329,0.019411
2405.9966,0.019269
2407.8602,0.019164
2409.7239,0.019347
2411.5876,0.019659
2413.4512,0.019769
2415.3149,0.020141
2417.1786,0.020356
2419.0423,0.020110
2420.9059,0.020007
2422.7696,0.020157
2424.6333,0.020043
2426.4969,0.020411
2428.3606,0.020679
2430.2243,0.020544
2432.0879,0.020499
2433.9516,0.020511
2435.8153,0.020755
2437.6789,0.020897
2439.5426,0.020897
2441.4063,0.020594
2443.2700,0.020535
2445.1336,0.021158
2446.9973,0.021266
2448.8610,0.020977
2450.7246,0.020959
2452.5883,0.020898
2454.4520,0.021053
2456.3156,0.021140
2458.1793,0.021109
2460.0430,0.021088
2461.9066,0.021048
2463.7703,0.021083
2465.6340,0.020867
2467.4976,0.020626
2469.3613,0.020651
2471.2250,0.021310
2473.0887,0.021640
2474.9523,0.021414
2476.8160,0.021246
2478.6797,0.021278
2480.5433,0.021841
2482.4070,0.022310
2484.2707,0.022026
2486.1343,0.021770
2487.9980,0.022042
2489.8617,0.022750
2491.7253,0.023401
2493.5890,0.023515
2495.4527,0.022831
2497.3164,0.022698
2499.1800,0.022962
2501.0437,0.022758
2502.9074,0.022973
2504.7710,0.023300
2506.6347,0.023098
2508.4984,0.023211
2510.3620,0.023338
2512.2257,0.023352
2514.0894,0.023641
2515.9530,0.023608
2517.8167,0.023563
2519.6804,0.023627
2521.5440,0.023717
2523.4077,0.024106
2525.2714,0.024518
2527.1351,0.024757
