Wavenumber,Intensity
650.4205,0.118767
652.2841,0.118245
654.1478,0.117258
656.0115,0.115807
657.8751,0.115484
659.7388,0.114513
661.6025,0.115168
663.4661,0.116756
665.3298,0.119105
667.1935,0.120811
669.0571,0.120988
670.9208,0.118258
672.7845,0.115453
674.6481,0.113023
676.5118,0.110613
678.3755,0.109222
680.2392,0.109021
682.1028,0.106743
683.9665,0.104961
685.8302,0.104018
687.6938,0.103259
689.5575,0.103070
691.4212,0.102858
693.2848,0.102437
695.1485,0.101527
697.0122,0.101535
698.8758,0.102461
700.7395,0.102372
702.6032,0.101868
704.4669,0.100651
706.3305,0.098375
708.1942,0.094632
710.0579,0.090111
711.9215,0.085738
713.7852,0.081621
715.6489,0.077993
717.5125,0.075418
719.3762,0.072762
721.2399,0.069990
723.1035,0.067468
724.9672,0.064994
726.8309,0.062697
728.6945,0.061340
730.5582,0.060563
732.4219,0.059040
734.2856,0.056683
736.1492,0.054992
738.0129,0.054251
739.8766,0.054081
741.7402,0.054862
743.6039,0.056246
745.4676,0.056778
747.3312,0.056428
749.1949,0.056038
751.0586,0.056008
752.9222,0.055674
754.7859,0.055015
756.6496,0.054242
758.5132,0.053915
760.3769,0.053807
762.2406,0.053496
764.1043,0.053073
765.9679,0.053262
767.8316,0.053391
769.6953,0.053090
771.5589,0.052828
773.4226,0.053198
775.2863,0.053423
777.1499,0.053843
779.0136,0.054591
780.8773,0.055296
782.7409,0.056289
784.6046,0.057625
786.4683,0.058614
788.3320,0.059402
790.1956,0.060323
792.0593,0.061449
793.9230,0.062508
795.7866,0.063442
797.6503,0.064291
799.5140,0.065204
801.3776,0.065885
803.2413,0.066315
805.1050,0.066035
806.9686,0.065247
808.8323,0.064227
810.6960,0.063115
812.5596,0.061837
814.4233,0.060510
816.2870,0.059073
818.1507,0.057720
820.0143,0.056553
821.8780,0.055327
823.7417,0.054514
825.6053,0.054539
827.4690,0.055274
829.3327,0.055800
831.1963,0.053355
833.0600,0.047882
834.9237,0.042865
836.7873,0.040305
838.6510,0.039388
840.5147,0.039025
842.3784,0.038772
844.2420,0.038786
846.1057,0.039166
847.9694,0.039500
849.8330,0.039889
851.6967,0.040400
853.5604,0.040963
855.4240,0.041442
857.2877,0.041721
859.1514,0.041849
861.0150,0.041409
862.8787,0.040832
864.7424,0.040820
866.6060,0.040953
868.4697,0.040801
870.3334,0.040747
872.1971,0.040839
874.0607,0.040798
875.9244,0.040838
877.7881,0.041194
879.6517,0.041549
881.5154,0.041826
883.3791,0.042173
885.2427,0.042610
887.1064,0.043150
888.9701,0.043642
890.8337,0.044101
892.6974,0.044724
894.5611,0.045520
896.4247,0.046382
898.2884,0.047461
900.1521,0.048780
902.0158,0.050262
903.8794,0.052041
905.7431,0.054171
907.6068,0.056676
909.4704,0.059481
911.3341,0.062549
913.1978,0.066020
915.0614,0.067899
916.9251,0.064453
918.7888,0.057093
920.6524,0.051192
922.5161,0.048569
924.3798,0.047841
926.2435,0.047888
928.1071,0.048532
929.9708,0.049467
931.8345,0.050408
933.6981,0.051499
935.5618,0.052567
937.4255,0.053180
939.2891,0.053392
941.1528,0.053705
943.0165,0.054291
944.8801,0.055075
946.7438,0.055945
948.6075,0.056705
950.4711,0.057646
952.3348,0.058851
954.1985,0.060161
956.0622,0.061443
957.9258,0.062535
959.7895,0.063543
961.6532,0.064602
963.5168,0.065779
965.3805,0.067203
967.2442,0.068996
969.1078,0.070993
970.9715,0.072973
972.8352,0.075275
974.6988,0.078660
976.5625,0.083964
978.4262,0.092356
980.2899,0.103256
982.1535,0.107786
984.0172,0.096983
985.8809,0.081700
987.7445,0.074493
989.6082,0.073509
991.4719,0.074220
993.3355,0.075585
995.1992,0.077253
997.0629,0.078981
998.9265,0.080745
1000.7902,0.082393
1002.6539,0.083911
1004.5175,0.085517
1006.3812,0.087154
1008.2449,0.088395
1010.1086,0.088956
1011.9722,0.088939
1013.8359,0.088474
1015.6996,0.087555
1017.5632,0.086483
1019.4269,0.085465
1021.2906,0.084447
1023.1542,0.083489
1025.0179,0.082536
1026.8816,0.081554
1028.7452,0.080660
1030.6089,0.079801
1032.4726,0.078943
1034.3362,0.078429
1036.1999,0.078249
1038.0636,0.078205
1039.9273,0.078355
1041.7909,0.078709
1043.6546,0.079119
1045.5183,0.079531
1047.3819,0.079574
1049.2456,0.078267
1051.1093,0.074831
1052.9729,0.070084
1054.8366,0.065817
1056.7003,0.063026
1058.5639,0.061612
1060.4276,0.060973
1062.2913,0.060659
1064.1550,0.060645
1066.0186,0.060942
1067.8823,0.061432
1069.7460,0.062025
1071.6096,0.062648
1073.4733,0.063278
1075.3370,0.063978
1077.2006,0.064782
1079.0643,0.065582
1080.9280,0.066388
1082.7916,0.067345
1084.6553,0.068467
1086.5190,0.069760
1088.3826,0.071214
1090.2463,0.072814
1092.1100,0.074631
1093.9737,0.076715
1095.8373,0.079035
1097.7010,0.081682
1099.5647,0.084564
1101.4283,0.087344
1103.2920,0.089771
1105.1557,0.091458
1107.0193,0.091657
1108.8830,0.089710
1110.7467,0.085554
1112.6103,0.079879
1114.4740,0.073770
1116.3377,0.068079
1118.2014,0.063249
1120.0650,0.059476
1121.9287,0.056817
1123.7924,0.054933
1125.6560,0.053431
1127.5197,0.052097
1129.3834,0.050663
1131.2470,0.049248
1133.1107,0.048048
1134.9744,0.047037
1136.8380,0.046186
1138.7017,0.045609
1140.5654,0.045326
1142.4290,0.045136
1144.2927,0.044970
1146.1564,0.044664
1148.0201,0.044288
1149.8837,0.044109
1151.7474,0.044064
1153.6111,0.044174
1155.4747,0.044525
1157.3384,0.044927
1159.2021,0.045211
1161.0657,0.045417
1162.9294,0.045835
1164.7931,0.046642
1166.6567,0.047831
1168.5204,0.049423
1170.3841,0.051164
1172.2477,0.052450
1174.1114,0.052436
1175.9751,0.050776
1177.8388,0.048268
1179.7024,0.046084
1181.5661,0.044849
1183.4298,0.044445
1185.2934,0.044462
1187.1571,0.044658
1189.0208,0.044859
1190.8844,0.044757
1192.7481,0.044351
1194.6118,0.043885
1196.4754,0.043550
1198.3391,0.043420
1200.2028,0.043330
1202.0665,0.043309
1203.9301,0.043407
1205.7938,0.043437
1207.6575,0.043402
1209.5211,0.043450
1211.3848,0.043659
1213.2485,0.043926
1215.1121,0.044121
1216.9758,0.044293
1218.8395,0.044461
1220.7031,0.044604
1222.5668,0.044744
1224.4305,0.044881
1226.2941,0.044965
1228.1578,0.044983
1230.0215,0.045054
1231.8852,0.045263
1233.7488,0.045485
1235.6125,0.045672
1237.4762,0.045942
1239.3398,0.046331
1241.2035,0.046676
1243.0672,0.046827
1244.9308,0.046907
1246.7945,0.047057
1248.6582,0.047285
1250.5218,0.047518
1252.3855,0.047786
1254.2492,0.048141
1256.1129,0.048526
1257.9765,0.048900
1259.8402,0.049347
1261.7039,0.049989
1263.5675,0.050639
1265.4312,0.051115
1267.2949,0.051358
1269.1585,0.051392
1271.0222,0.051409
1272.8859,0.051472
1274.7495,0.051633
1276.6132,0.052068
1278.4769,0.052700
1280.3405,0.053449
1282.2042,0.054376
1284.0679,0.055473
1285.9316,0.056661
1287.7952,0.057831
1289.6589,0.058958
1291.5226,0.060217
1293.3862,0.061760
1295.2499,0.063687
1297.1136,0.066151
1298.9772,0.069239
1300.8409,0.073059
1302.7046,0.077257
1304.5682,0.080526
1306.4319,0.080659
1308.2956,0.075927
1310.1592,0.066902
1312.0229,0.057104
1313.8866,0.050125
1315.7503,0.046940
1317.6139,0.046323
1319.4776,0.047062
1321.3413,0.048147
1323.2049,0.049196
1325.0686,0.050377
1326.9323,0.051725
1328.7959,0.053135
1330.6596,0.054385
1332.5233,0.055332
1334.3869,0.055796
1336.2506,0.056133
1338.1143,0.057137
1339.9780,0.058549
1341.8416,0.058783
1343.7053,0.058248
1345.5690,0.058285
1347.4326,0.058830
1349.2963,0.059571
1351.1600,0.060302
1353.0236,0.061060
1354.8873,0.062176
1356.7510,0.063332
1358.6146,0.064326
1360.4783,0.065606
1362.3420,0.067523
1364.2056,0.069152
1366.0693,0.069816
1367.9330,0.071055
1369.7967,0.072843
1371.6603,0.074278
1373.5240,0.076370
1375.3877,0.079114
1377.2513,0.080790
1379.1150,0.082669
1380.9787,0.085180
1382.8423,0.087647
1384.7060,0.090377
1386.5697,0.094143
1388.4333,0.098476
1390.2970,0.100851
1392.1607,0.102135
1394.0244,0.102835
1395.8880,0.101215
1397.7517,0.097811
1399.6154,0.093743
1401.4790,0.089317
1403.3427,0.085700
1405.2064,0.080618
1407.0700,0.072406
1408.9337,0.063680
1410.7974,0.055638
1412.6610,0.049406
1414.5247,0.045794
1416.3884,0.044845
1418.2520,0.047029
1420.1157,0.051777
1421.9794,0.054148
1423.8431,0.053751
1425.7067,0.049984
1427.5704,0.044923
1429.4341,0.041375
1431.2977,0.039591
1433.1614,0.038922
1435.0251,0.039367
1436.8887,0.041810
1438.7524,0.043438
1440.6161,0.043443
1442.4797,0.044073
1444.3434,0.044915
1446.2071,0.045690
1448.0707,0.046490
1449.9344,0.046110
1451.7981,0.044582
1453.6618,0.042873
1455.5254,0.042267
1457.3891,0.045082
1459.2528,0.046921
1461.1164,0.046127
1462.9801,0.046137
1464.8438,0.046941
1466.7074,0.046619
1468.5711,0.045012
1470.4348,0.044049
1472.2984,0.044742
1474.1621,0.045716
1476.0258,0.045254
1477.8895,0.044969
1479.7531,0.044745
1481.6168,0.045128
1483.4805,0.045493
1485.3441,0.045401
1487.2078,0.045849
1489.0715,0.047379
1490.9351,0.048736
1492.7988,0.048470
1494.6625,0.048307
1496.5261,0.049823
1498.3898,0.051380
1500.2535,0.051342
1502.1171,0.050458
1503.9808,0.049402
1505.8445,0.050064
1507.7082,0.054553
1509.5718,0.054330
1511.4355,0.053311
1513.2992,0.053145
1515.1628,0.053191
1517.0265,0.054003
1518.8902,0.054726
1520.7538,0.055599
1522.6175,0.057911
1524.4812,0.058315
1526.3448,0.059005
1528.2085,0.059578
1530.0722,0.059165
1531.9359,0.059237
1533.7995,0.060568
1535.6632,0.060508
1537.5269,0.059505
1539.3905,0.061010
1541.2542,0.065551
1543.1179,0.066593
1544.9815,0.067296
1546.8452,0.067370
1548.7089,0.067624
1550.5725,0.068910
1552.4362,0.069415
1554.2999,0.069466
1556.1635,0.070182
1558.0272,0.072646
1559.8909,0.080183
1561.7546,0.079027
1563.6182,0.078023
1565.4819,0.079191
1567.3456,0.080557
1569.2092,0.082603
1571.0729,0.085148
1572.9366,0.085294
1574.8002,0.086560
1576.6639,0.090377
1578.5276,0.091894
1580.3912,0.091881
1582.2549,0.093089
1584.1186,0.094364
1585.9822,0.095226
1587.8459,0.095677
1589.7096,0.096012
1591.5733,0.096145
1593.4369,0.096085
1595.3006,0.095667
1597.1643,0.094564
1599.0279,0.093092
1600.8916,0.091847
1602.7553,0.090618
1604.6189,0.089162
1606.4826,0.087801
1608.3463,0.086823
1610.2099,0.085752
1612.0736,0.084215
1613.9373,0.082602
1615.8010,0.081588
1617.6646,0.079354
1619.5283,0.075415
1621.3920,0.072988
1623.2556,0.070615
1625.1193,0.066699
1626.9830,0.062707
1628.8466,0.058201
1630.7103,0.052998
1632.5740,0.048789
1634.4376,0.045248
1636.3013,0.041951
1638.1650,0.038751
1640.0286,0.036793
1641.8923,0.035416
1643.7560,0.034779
1645.6197,0.034743
1647.4833,0.035748
1649.3470,0.036342
1651.2107,0.036673
1653.0743,0.038802
1654.9380,0.041982
1656.8017,0.041897
1658.6653,0.042161
1660.5290,0.042437
1662.3927,0.042599
1664.2563,0.042216
1666.1200,0.041417
1667.9837,0.040738
1669.8474,0.040368
1671.7110,0.039870
1673.5747,0.039798
1675.4384,0.040638
1677.3020,0.041878
1679.1657,0.042611
1681.0294,0.044249
1682.8930,0.046645
1684.7567,0.049693
1686.6204,0.049888
1688.4840,0.049436
1690.3477,0.049082
1692.2114,0.047784
1694.0750,0.046551
1695.9387,0.045787
1697.8024,0.043895
1699.6661,0.042545
1701.5297,0.039404
1703.3934,0.035494
1705.2571,0.032082
1707.1207,0.027687
1708.9844,0.024041
1710.8481,0.021215
1712.7117,0.018978
1714.5754,0.017545
1716.4391,0.016402
1718.3027,0.015853
1720.1664,0.015185
1722.0301,0.014544
1723.8937,0.013764
1725.7574,0.012747
1727.6211,0.011634
1729.4848,0.010770
1731.3484,0.010042
1733.2121,0.009608
1735.0758,0.009054
1736.9394,0.008683
1738.8031,0.008344
1740.6668,0.008076
1742.5304,0.007926
1744.3941,0.007835
1746.2578,0.007638
1748.1214,0.007595
1749.9851,0.007474
1751.8488,0.007294
1753.7125,0.007088
1755.5761,0.007123
1757.4398,0.006996
1759.3035,0.006709
1761.1671,0.006504
1763.0308,0.006506
1764.8945,0.006460
1766.7581,0.006462
1768.6218,0.006259
1770.4855,0.006115
1772.3491,0.005965
1774.2128,0.006009
1776.0765,0.006071
1777.9401,0.006108
1779.8038,0.006088
1781.6675,0.006128
1783.5312,0.006108
1785.3948,0.006113
1787.2585,0.006141
1789.1222,0.006190
1790.9858,0.006155
1792.8495,0.006104
1794.7132,0.006019
1796.5768,0.006100
1798.4405,0.006157
1800.3042,0.006190
1802.1678,0.006123
1804.0315,0.006135
1805.8952,0.006138
1807.7589,0.006234
1809.6225,0.006199
1811.4862,0.006102
1813.3499,0.005923
1815.2135,0.005859
1817.0772,0.005832
1818.9409,0.005931
1820.8045,0.006081
1822.6682,0.006400
1824.5319,0.006485
1826.3955,0.006380
1828.2592,0.006093
1830.1229,0.006001
1831.9865,0.005920
1833.8502,0.005915
1835.7139,0.005844
1837.5776,0.005845
1839.4412,0.005829
1841.3049,0.005817
1843.1686,0.005825
1845.0322,0.005849
1846.8959,0.005721
1848.7596,0.005848
1850.6232,0.005864
1852.4869,0.005881
1854.3506,0.005890
1856.2142,0.005924
1858.0779,0.005883
1859.9416,0.005895
1861.8052,0.005897
1863.6689,0.006049
1865.5326,0.005869
1867.3963,0.005730
1869.2599,0.005828
1871.1236,0.005807
1872.9873,0.005661
1874.8509,0.005802
1876.7146,0.005855
1878.5783,0.006091
1880.4419,0.006196
1882.3056,0.006190
1884.1693,0.006135
1886.0329,0.006114
1887.8966,0.005876
1889.7603,0.005873
1891.6240,0.005913
1893.4876,0.005768
1895.3513,0.005580
1897.2150,0.005882
1899.0786,0.006134
1900.9423,0.006094
1902.8060,0.005839
1904.6696,0.006038
1906.5333,0.006137
1908.3970,0.006392
1910.2606,0.006256
1912.1243,0.005871
1913.9880,0.005542
1915.8516,0.005684
1917.7153,0.005738
1919.5790,0.005633
1921.4427,0.005721
1923.3063,0.006037
1925.1700,0.005659
1927.0337,0.005469
1928.8973,0.005782
1930.7610,0.005838
1932.6247,0.005497
1934.4883,0.005513
1936.3520,0.005327
1938.2157,0.005271
1940.0793,0.005589
1941.9430,0.005691
1943.8067,0.005357
1945.6704,0.004974
1947.5340,0.005260
1949.3977,0.006093
1951.2614,0.006130
1953.1250,0.005415
1954.9887,0.004604
1956.8524,0.004752
1958.7160,0.004805
1960.5797,0.005164
1962.4434,0.005074
1964.3070,0.004754
1966.1707,0.003592
1968.0344,0.002734
1969.8980,0.001921
1971.7617,0.002620
1973.6254,0.003421
1975.4891,0.004137
1977.3527,0.004107
1979.2164,0.004248
1981.0801,0.004911
1982.9437,0.004536
1984.8074,0.003833
1986.6711,0.004758
1988.5347,0.004968
1990.3984,0.005225
1992.2621,0.005924
1994.1257,0.005995
1995.9894,0.005137
1997.8531,0.004860
1999.7167,0.004828
2001.5804,0.004483
2003.4441,0.003978
2005.3078,0.005130
2007.1714,0.004997
2009.0351,0.004697
2010.8988,0.005148
2012.7624,0.005266
2014.6261,0.004608
2016.4898,0.004341
2018.3534,0.003768
2020.2171,0.003718
2022.0808,0.002633
2023.9444,0.002302
2025.8081,0.003771
2027.6718,0.005977
2029.5355,0.006284
2031.3991,0.005213
2033.2628,0.004162
2035.1265,0.004723
2036.9901,0.005253
2038.8538,0.005692
2040.7175,0.006205
2042.5811,0.006844
2044.4448,0.006351
2046.3085,0.005095
2048.1721,0.005497
2050.0358,0.007533
2051.8995,0.007910
2053.7631,0.006880
2055.6268,0.007199
2057.4905,0.007986
2059.3542,0.007381
2061.2178,0.006648
2063.0815,0.006970
2064.9452,0.008011
2066.8088,0.007816
2068.6725,0.007935
2070.5362,0.008420
2072.3998,0.008404
2074.2635,0.008069
2076.1272,0.008738
2077.9908,0.009017
2079.8545,0.008532
2081.7182,0.008460
2083.5819,0.008737
2085.4455,0.008640
2087.3092,0.008609
2089.1729,0.008979
2091.0365,0.009071
2092.9002,0.008411
2094.7639,0.008324
2096.6275,0.008435
2098.4912,0.008733
2100.3549,0.008707
2102.2185,0.008673
2104.0822,0.008134
2105.9459,0.008209
2107.8095,0.009050
2109.6732,0.008890
2111.5369,0.008676
2113.4006,0.009313
2115.2642,0.009405
2117.1279,0.009090
2118.9916,0.009018
2120.8552,0.009092
2122.7189,0.008621
2124.5826,0.008438
2126.4462,0.008446
2128.3099,0.007895
2130.1736,0.007108
2132.0372,0.006908
2133.9009,0.006943
2135.7646,0.006842
2137.6282,0.007023
2139.4919,0.007438
2141.3556,0.007085
2143.2193,0.006887
2145.0829,0.006921
2146.9466,0.006764
2148.8103,0.005390
2150.6739,0.004771
2152.5376,0.005104
2154.4013,0.005806
2156.2649,0.005173
2158.1286,0.004860
2159.9923,0.005739
2161.8559,0.006846
2163.7196,0.006202
2165.5833,0.005635
2167.4470,0.006078
2169.3106,0.006814
2171.1743,0.006052
2173.0380,0.005918
2174.9016,0.005903
2176.7653,0.007038
2178.6290,0.007701
2180.4926,0.007057
2182.3563,0.007374
2184.2200,0.008331
2186.0836,0.007977
2187.9473,0.007837
2189.8110,0.007705
2191.6746,0.007821
2193.5383,0.007712
2195.4020,0.007749
2197.2657,0.007665
2199.1293,0.007567
2200.9930,0.007785
2202.8567,0.009611
2204.7203,0.010231
2206.5840,0.009983
2208.4477,0.009077
2210.3113,0.009334
2212.1750,0.009771
2214.0387,0.009306
2215.9023,0.009509
2217.7660,0.009803
2219.6297,0.008917
2221.4934,0.009272
2223.3570,0.009755
2225.2207,0.009695
2227.0844,0.009279
2228.9480,0.010178
2230.8117,0.010118
2232.6754,0.010043
2234.5390,0.011067
2236.4027,0.011410
2238.2664,0.010694
2240.1300,0.010486
2241.9937,0.010662
2243.8574,0.010791
2245.7210,0.009727
2247.5847,0.009493
2249.4484,0.010246
2251.3121,0.010614
2253.1757,0.009813
2255.0394,0.009900
2256.9031,0.010548
2258.7667,0.011037
2260.6304,0.011155
2262.4941,0.011253
2264.3577,0.010831
2266.2214,0.010651
2268.0851,0.011041
2269.9487,0.011570
2271.8124,0.011879
2273.6761,0.012249
2275.5397,0.012373
2277.4034,0.012847
2279.2671,0.013015
2281.1308,0.012943
2282.9944,0.013306
2284.8581,0.013352
2286.7218,0.013001
2288.5854,0.013385
2290.4491,0.013567
2292.3128,0.013234
2294.1764,0.013053
2296.0401,0.013162
2297.9038,0.012938
2299.7674,0.012782
2301.6311,0.012944
2303.4948,0.013095
2305.3585,0.013050
2307.2221,0.013043
2309.0858,0.013327
2310.9495,0.013441
2312.8131,0.013341
2314.6768,0.013766
2316.5405,0.013938
2318.4041,0.013749
2320.2678,0.013518
2322.1315,0.013714
2323.9951,0.014049
2325.8588,0.013737
2327.7225,0.013075
2329.5861,0.012761
2331.4498,0.012709
2333.3135,0.012528
2335.1772,0.012365
2337.0408,0.012377
2338.9045,0.012405
2340.7682,0.012481
2342.6318,0.012198
2344.4955,0.012250
2346.3592,0.012395
2348.2228,0.012234
2350.0865,0.012018
2351.9502,0.012015
2353.8138,0.011846
2355.6775,0.012059
2357.5412,0.012436
2359.4049,0.012014
2361.2685,0.011950
2363.1322,0.012043
2364.9959,0.012172
2366.8595,0.012537
2368.7232,0.012539
2370.5869,0.012332
2372.4505,0.012208
2374.3142,0.012352
2376.1779,0.012613
2378.0415,0.012961
2379.9052,0.012718
2381.7689,0.012621
2383.6325,0.012610
2385.4962,0.012630
2387.3599,0.012775
2389.2236,0.012980
2391.0872,0.013064
2392.9509,0.013066
2394.8146,0.013054
2396.6782,0.012882
2398.5419,0.012732
2400.4056,0.012718
2402.2692,0.012976
2404.1329,0.013148
2405.9966,0.013387
2407.8602,0.013643
2409.7239,0.013562
2411.5876,0.013612
2413.4512,0.013629
2415.3149,0.013567
2417.1786,0.013398
2419.0423,0.013411
2420.9059,0.013790
2422.7696,0.013966
2424.6333,0.013856
2426.4969,0.014131
2428.3606,0.014186
2430.2243,0.013951
2432.0879,0.014073
2433.9516,0.014463
2435.8153,0.014352
2437.6789,0.014110
2439.5426,0.014273
2441.4063,0.014300
2443.2700,0.014445
2445.1336,0.014624
2446.9973,0.014568
2448.8610,0.014103
2450.7246,0.013908
2452.5883,0.014316
2454.4520,0.014478
2456.3156,0.014080
2458.1793,0.014039
2460.0430,0.014188
2461.9066,0.014185
2463.7703,0.013965
2465.6340,0.014136
2467.4976,0.014481
2469.3613,0.014500
2471.2250,0.014172
2473.0887,0.013960
2474.9523,0.014214
2476.8160,0.014362
2478.6797,0.014487
2480.5433,0.014566
2482.4070,0.014627
2484.2707,0.014662
2486.1343,0.014765
2487.9980,0.014538
2489.8617,0.014567
2491.7253,0.015074
2493.5890,0.015390
2495.4527,0.015230
2497.3164,0.015305
2499.1800,0.015380
2501.0437,0.015297
2502.9074,0.015540
2504.7710,0.015679
2506.6347,0.015579
2508.4984,0.015629
2510.3620,0.015622
2512.2257,0.015338
2514.0894,0.015239
2515.9530,0.015598
2517.8167,0.015375
2519.6804,0.015545
2521.5440,0.015978
2523.4077,0.016181
2525.2714,0.016583
2527.1351,0.016758
