Wavenumber,Intensity
650.4205,0.216839
652.2841,0.211363
654.1478,0.205659
656.0115,0.201521
657.8751,0.199478
659.7388,0.194679
661.6025,0.191840
663.4661,0.190510
665.3298,0.188643
667.1935,0.187634
669.0571,0.186043
670.9208,0.183802
672.7845,0.185568
674.6481,0.186290
676.5118,0.186317
678.3755,0.186801
680.2392,0.187035
682.1028,0.186044
683.9665,0.186159
685.8302,0.186902
687.6938,0.188188
689.5575,0.188810
691.4212,0.189668
693.2848,0.190240
695.1485,0.190960
697.0122,0.191292
698.8758,0.193659
700.7395,0.195913
702.6032,0.197176
704.4669,0.195556
706.3305,0.190449
708.1942,0.183436
710.0579,0.175747
711.9215,0.167384
713.7852,0.159349
715.6489,0.151777
717.5125,0.144629
719.3762,0.138507
721.2399,0.133743
723.1035,0.128795
724.9672,0.123752
726.8309,0.119136
728.6945,0.114970
730.5582,0.111073
732.4219,0.107992
734.2856,0.104886
736.1492,0.101764
738.0129,0.099981
739.8766,0.099873
741.7402,0.101078
743.6039,0.103615
745.4676,0.105477
747.3312,0.106295
749.1949,0.106851
751.0586,0.106719
752.9222,0.105979
754.7859,0.105572
756.6496,0.105104
758.5132,0.104376
760.3769,0.103812
762.2406,0.103042
764.1043,0.101761
765.9679,0.100466
767.8316,0.099447
769.6953,0.098566
771.5589,0.097862
773.4226,0.097396
775.2863,0.097236
777.1499,0.097219
779.0136,0.096928
780.8773,0.097389
782.7409,0.098559
784.6046,0.099506
786.4683,0.100259
788.3320,0.101486
790.1956,0.102804
792.0593,0.104164
793.9230,0.105999
795.7866,0.107950
797.6503,0.109495
799.5140,0.110473
801.3776,0.111154
803.2413,0.111749
805.1050,0.111836
806.9686,0.111125
808.8323,0.109735
810.6960,0.107736
812.5596,0.105018
814.4233,0.102274
816.2870,0.099773
818.1507,0.097279
820.0143,0.094878
821.8780,0.093122
823.7417,0.092418
825.6053,0.092992
827.4690,0.095266
829.3327,0.097520
831.1963,0.094058
833.0600,0.084341
834.9237,0.075473
836.7873,0.071287
838.6510,0.069964
840.5147,0.069253
842.3784,0.068742
844.2420,0.068577
846.1057,0.068351
847.9694,0.067871
849.8330,0.067245
851.6967,0.066671
853.5604,0.066441
855.4240,0.066151
857.2877,0.065677
859.1514,0.065178
861.0150,0.064557
862.8787,0.064004
864.7424,0.063512
866.6060,0.062972
868.4697,0.062483
870.3334,0.062035
872.1971,0.061747
874.0607,0.061595
875.9244,0.061669
877.7881,0.062098
879.6517,0.062537
881.5154,0.062996
883.3791,0.063779
885.2427,0.064752
887.1064,0.065711
888.9701,0.066698
890.8337,0.067819
892.6974,0.068842
894.5611,0.069776
896.4247,0.071045
898.2884,0.072555
900.1521,0.074069
902.0158,0.076030
903.8794,0.078757
905.7431,0.082489
907.6068,0.087161
909.4704,0.092369
911.3341,0.098547
913.1978,0.106189
915.0614,0.111146
916.9251,0.105699
918.7888,0.092282
920.6524,0.081304
922.5161,0.076286
924.3798,0.074574
926.2435,0.074239
928.1071,0.074297
929.9708,0.074238
931.8345,0.074345
933.6981,0.074495
935.5618,0.074472
937.4255,0.074472
939.2891,0.074356
941.1528,0.074211
943.0165,0.074305
944.8801,0.074592
946.7438,0.075216
948.6075,0.076333
950.4711,0.077838
952.3348,0.079573
954.1985,0.081628
956.0622,0.083930
957.9258,0.086311
959.7895,0.088843
961.6532,0.091582
963.5168,0.094580
965.3805,0.097882
967.2442,0.101848
969.1078,0.106515
970.9715,0.111363
972.8352,0.116716
974.6988,0.124183
976.5625,0.135682
978.4262,0.153701
980.2899,0.178072
982.1535,0.190493
984.0172,0.170193
985.8809,0.139438
987.7445,0.124742
989.6082,0.122359
991.4719,0.122774
993.3355,0.123478
995.1992,0.124029
997.0629,0.124330
998.9265,0.124605
1000.7902,0.124838
1002.6539,0.125059
1004.5175,0.125520
1006.3812,0.126211
1008.2449,0.127121
1010.1086,0.128111
1011.9722,0.129146
1013.8359,0.130118
1015.6996,0.130770
1017.5632,0.131100
1019.4269,0.131084
1021.2906,0.130839
1023.1542,0.130405
1025.0179,0.129733
1026.8816,0.128900
1028.7452,0.128103
1030.6089,0.127551
1032.4726,0.127145
1034.3362,0.126935
1036.1999,0.127185
1038.0636,0.127870
1039.9273,0.128863
1041.7909,0.130341
1043.6546,0.132413
1045.5183,0.134912
1047.3819,0.137032
1049.2456,0.136577
1051.1093,0.131348
1052.9729,0.122099
1054.8366,0.112726
1056.7003,0.105946
1058.5639,0.101666
1060.4276,0.099169
1062.2913,0.097600
1064.1550,0.096756
1066.0186,0.097044
1067.8823,0.098617
1069.7460,0.101491
1071.6096,0.105086
1073.4733,0.108531
1075.3370,0.111293
1077.2006,0.113126
1079.0643,0.114141
1080.9280,0.114539
1082.7916,0.114672
1084.6553,0.114773
1086.5190,0.115133
1088.3826,0.116250
1090.2463,0.118251
1092.1100,0.121216
1093.9737,0.125275
1095.8373,0.130259
1097.7010,0.136084
1099.5647,0.142766
1101.4283,0.149824
1103.2920,0.156299
1105.1557,0.161189
1107.0193,0.163021
1108.8830,0.160090
1110.7467,0.152155
1112.6103,0.140879
1114.4740,0.128702
1116.3377,0.117353
1118.2014,0.107781
1120.0650,0.100527
1121.9287,0.095457
1123.7924,0.092021
1125.6560,0.089534
1127.5197,0.087341
1129.3834,0.085165
1131.2470,0.083237
1133.1107,0.081697
1134.9744,0.080599
1136.8380,0.080181
1138.7017,0.080422
1140.5654,0.081059
1142.4290,0.081886
1144.2927,0.082629
1146.1564,0.083062
1148.0201,0.083176
1149.8837,0.082960
1151.7474,0.082387
1153.6111,0.081488
1155.4747,0.080285
1157.3384,0.078858
1159.2021,0.077365
1161.0657,0.075998
1162.9294,0.074966
1164.7931,0.074566
1166.6567,0.074925
1168.5204,0.076060
1170.3841,0.077778
1172.2477,0.079016
1174.1114,0.078233
1175.9751,0.074771
1177.8388,0.069924
1179.7024,0.065840
1181.5661,0.063431
1183.4298,0.062349
1185.2934,0.062114
1187.1571,0.062345
1189.0208,0.062516
1190.8844,0.062503
1192.7481,0.062616
1194.6118,0.062877
1196.4754,0.063197
1198.3391,0.063511
1200.2028,0.063828
1202.0665,0.064186
1203.9301,0.064520
1205.7938,0.064852
1207.6575,0.065204
1209.5211,0.065430
1211.3848,0.065664
1213.2485,0.066092
1215.1121,0.066574
1216.9758,0.067087
1218.8395,0.067649
1220.7031,0.068251
1222.5668,0.068889
1224.4305,0.069522
1226.2941,0.070185
1228.1578,0.070836
1230.0215,0.071439
1231.8852,0.072034
1233.7488,0.072552
1235.6125,0.073022
1237.4762,0.073545
1239.3398,0.074113
1241.2035,0.074636
1243.0672,0.075141
1244.9308,0.075708
1246.7945,0.076323
1248.6582,0.077019
1250.5218,0.077723
1252.3855,0.078380
1254.2492,0.079067
1256.1129,0.079735
1257.9765,0.080446
1259.8402,0.081391
1261.7039,0.082498
1263.5675,0.083544
1265.4312,0.084536
1267.2949,0.085277
1269.1585,0.085556
1271.0222,0.085604
1272.8859,0.085647
1274.7495,0.085807
1276.6132,0.086256
1278.4769,0.087060
1280.3405,0.088240
1282.2042,0.089694
1284.0679,0.091397
1285.9316,0.093428
1287.7952,0.095902
1289.6589,0.098723
1291.5226,0.101922
1293.3862,0.105862
1295.2499,0.110658
1297.1136,0.116498
1298.9772,0.123630
1300.8409,0.132756
1302.7046,0.143309
1304.5682,0.151563
1306.4319,0.152234
1308.2956,0.141316
1310.1592,0.120553
1312.0229,0.098983
1313.8866,0.084572
1315.7503,0.078597
1317.6139,0.077854
1319.4776,0.079474
1321.3413,0.081494
1323.2049,0.083565
1325.0686,0.086037
1326.9323,0.088655
1328.7959,0.091139
1330.6596,0.093423
1332.5233,0.095263
1334.3869,0.096416
1336.2506,0.097293
1338.1143,0.098920
1339.9780,0.101122
1341.8416,0.101819
1343.7053,0.101590
1345.5690,0.101990
1347.4326,0.102822
1349.2963,0.104032
1351.1600,0.105445
1353.0236,0.107032
1354.8873,0.109067
1356.7510,0.111104
1358.6146,0.112652
1360.4783,0.115022
1362.3420,0.119651
1364.2056,0.123788
1366.0693,0.125509
1367.9330,0.128473
1369.7967,0.132105
1371.6603,0.134821
1373.5240,0.139373
1375.3877,0.144936
1377.2513,0.148108
1379.1150,0.152269
1380.9787,0.158151
1382.8423,0.164337
1384.7060,0.171381
1386.5697,0.181742
1388.4333,0.193804
1390.2970,0.200134
1392.1607,0.203865
1394.0244,0.206500
1395.8880,0.202704
1397.7517,0.193474
1399.6154,0.183160
1401.4790,0.173437
1403.3427,0.165902
1405.2064,0.154871
1407.0700,0.136812
1408.9337,0.117598
1410.7974,0.099952
1412.6610,0.087137
1414.5247,0.080641
1416.3884,0.079286
1418.2520,0.083886
1420.1157,0.093124
1421.9794,0.097364
1423.8431,0.096406
1425.7067,0.088910
1427.5704,0.079257
1429.4341,0.072918
1431.2977,0.069701
1433.1614,0.068407
1435.0251,0.069221
1436.8887,0.073100
1438.7524,0.075191
1440.6161,0.075213
1442.4797,0.076514
1444.3434,0.077837
1446.2071,0.078919
1448.0707,0.079734
1449.9344,0.078174
1451.7981,0.074806
1453.6618,0.071507
1455.5254,0.070602
1457.3891,0.074985
1459.2528,0.076436
1461.1164,0.074301
1462.9801,0.073845
1464.8438,0.074676
1466.7074,0.073602
1468.5711,0.070703
1470.4348,0.069030
1472.2984,0.069785
1474.1621,0.070719
1476.0258,0.069700
1477.8895,0.068811
1479.7531,0.068022
1481.6168,0.068168
1483.4805,0.068000
1485.3441,0.067598
1487.2078,0.068320
1489.0715,0.070747
1490.9351,0.072682
1492.7988,0.071586
1494.6625,0.070893
1496.5261,0.073488
1498.3898,0.076208
1500.2535,0.076153
1502.1171,0.074807
1503.9808,0.073871
1505.8445,0.077042
1507.7082,0.086206
1509.5718,0.084866
1511.4355,0.083145
1513.2992,0.083119
1515.1628,0.083931
1517.0265,0.086325
1518.8902,0.087435
1520.7538,0.089176
1522.6175,0.093465
1524.4812,0.093092
1526.3448,0.093881
1528.2085,0.094847
1530.0722,0.094475
1531.9359,0.095578
1533.7995,0.099198
1535.6632,0.099166
1537.5269,0.097940
1539.3905,0.102879
1541.2542,0.111679
1543.1179,0.111836
1544.9815,0.112764
1546.8452,0.113435
1548.7089,0.114416
1550.5725,0.117369
1552.4362,0.119152
1554.2999,0.120549
1556.1635,0.123073
1558.0272,0.130004
1559.8909,0.146398
1561.7546,0.140772
1563.6182,0.138017
1565.4819,0.140509
1567.3456,0.143526
1569.2092,0.148443
1571.0729,0.153697
1572.9366,0.153620
1574.8002,0.157265
1576.6639,0.166810
1578.5276,0.170537
1580.3912,0.170861
1582.2549,0.174241
1584.1186,0.177530
1585.9822,0.180317
1587.8459,0.182336
1589.7096,0.183845
1591.5733,0.184304
1593.4369,0.184268
1595.3006,0.183574
1597.1643,0.181970
1599.0279,0.179542
1600.8916,0.177311
1602.7553,0.175110
1604.6189,0.173029
1606.4826,0.171160
1608.3463,0.169757
1610.2099,0.167773
1612.0736,0.164575
1613.9373,0.161103
1615.8010,0.158784
1617.6646,0.153484
1619.5283,0.144019
1621.3920,0.137612
1623.2556,0.132213
1625.1193,0.124570
1626.9830,0.116599
1628.8466,0.107601
1630.7103,0.097447
1632.5740,0.088889
1634.4376,0.081989
1636.3013,0.075291
1638.1650,0.068649
1640.0286,0.065285
1641.8923,0.063102
1643.7560,0.062267
1645.6197,0.063623
1647.4833,0.067223
1649.3470,0.067877
1651.2107,0.068993
1653.0743,0.076529
1654.9380,0.082729
1656.8017,0.080231
1658.6653,0.080587
1660.5290,0.081645
1662.3927,0.082528
1664.2563,0.081734
1666.1200,0.079667
1667.9837,0.078743
1669.8474,0.078779
1671.7110,0.077605
1673.5747,0.077354
1675.4384,0.079915
1677.3020,0.082525
1679.1657,0.084065
1681.0294,0.087830
1682.8930,0.092983
1684.7567,0.101713
1686.6204,0.102786
1688.4840,0.100721
1690.3477,0.099541
1692.2114,0.096772
1694.0750,0.093842
1695.9387,0.091266
1697.8024,0.086535
1699.6661,0.083501
1701.5297,0.077244
1703.3934,0.069566
1705.2571,0.062475
1707.1207,0.053462
1708.9844,0.046317
1710.8481,0.041229
1712.7117,0.037136
1714.5754,0.034592
1716.4391,0.032844
1718.3027,0.032087
1720.1664,0.030417
1722.0301,0.028953
1723.8937,0.027240
1725.7574,0.025247
1727.6211,0.023264
1729.4848,0.021712
1731.3484,0.020334
1733.2121,0.019813
1735.0758,0.019223
1736.9394,0.018164
1738.8031,0.017549
1740.6668,0.017313
1742.5304,0.016614
1744.3941,0.016340
1746.2578,0.016123
1748.1214,0.016110
1749.9851,0.015920
1751.8488,0.015630
1753.7125,0.015234
1755.5761,0.015178
1757.4398,0.015090
1759.3035,0.014798
1761.1671,0.014690
1763.0308,0.014905
1764.8945,0.014544
1766.7581,0.014384
1768.6218,0.014259
1770.4855,0.014371
1772.3491,0.014651
1774.2128,0.014689
1776.0765,0.014255
1777.9401,0.014243
1779.8038,0.014219
1781.6675,0.014423
1783.5312,0.014437
1785.3948,0.014575
1787.2585,0.014445
1789.1222,0.014302
1790.9858,0.014354
1792.8495,0.014809
1794.7132,0.014631
1796.5768,0.014353
1798.4405,0.014395
1800.3042,0.014640
1802.1678,0.014575
1804.0315,0.014547
1805.8952,0.014498
1807.7589,0.014655
1809.6225,0.014791
1811.4862,0.014944
1813.3499,0.014679
1815.2135,0.014397
1817.0772,0.014130
1818.9409,0.014262
1820.8045,0.014283
1822.6682,0.014490
1824.5319,0.014551
1826.3955,0.014411
1828.2592,0.014189
1830.1229,0.014390
1831.9865,0.014136
1833.8502,0.014000
1835.7139,0.013857
1837.5776,0.013895
1839.4412,0.013854
1841.3049,0.013924
1843.1686,0.013933
1845.0322,0.014094
1846.8959,0.014055
1848.7596,0.014022
1850.6232,0.013956
1852.4869,0.014087
1854.3506,0.014278
1856.2142,0.014715
1858.0779,0.014634
1859.9416,0.014434
1861.8052,0.014280
1863.6689,0.014179
1865.5326,0.014129
1867.3963,0.014227
1869.2599,0.014305
1871.1236,0.014474
1872.9873,0.014345
1874.8509,0.014330
1876.7146,0.014221
1878.5783,0.014419
1880.4419,0.014373
1882.3056,0.014224
1884.1693,0.014011
1886.0329,0.014014
1887.8966,0.014115
1889.7603,0.013978
1891.6240,0.013652
1893.4876,0.014101
1895.3513,0.014290
1897.2150,0.014139
1899.0786,0.014064
1900.9423,0.014525
1902.8060,0.014624
1904.6696,0.014512
1906.5333,0.014371
1908.3970,0.014380
1910.2606,0.014267
1912.1243,0.014294
1913.9880,0.013746
1915.8516,0.013793
1917.7153,0.013900
1919.5790,0.013865
1921.4427,0.013493
1923.3063,0.013355
1925.1700,0.013271
1927.0337,0.013507
1928.8973,0.013784
1930.7610,0.014251
1932.6247,0.013853
1934.4883,0.013297
1936.3520,0.012821
1938.2157,0.013438
1940.0793,0.013632
1941.9430,0.013297
1943.8067,0.012138
1945.6704,0.012217
1947.5340,0.012114
1949.3977,0.012013
1951.2614,0.011494
1953.1250,0.011456
1954.9887,0.011328
1956.8524,0.010845
1958.7160,0.009985
1960.5797,0.010448
1962.4434,0.009932
1964.3070,0.009211
1966.1707,0.008293
1968.0344,0.007194
1969.8980,0.006110
1971.7617,0.004915
1973.6254,0.003796
1975.4891,0.005834
1977.3527,0.007013
1979.2164,0.007829
1981.0801,0.007573
1982.9437,0.008251
1984.8074,0.008761
1986.6711,0.009708
1988.5347,0.009158
1990.3984,0.008798
1992.2621,0.009205
1994.1257,0.009632
1995.9894,0.009348
1997.8531,0.009709
1999.7167,0.009164
2001.5804,0.009387
2003.4441,0.009456
2005.3078,0.009190
2007.1714,0.008369
2009.0351,0.008088
2010.8988,0.007746
2012.7624,0.006844
2014.6261,0.006355
2016.4898,0.007046
2018.3534,0.007116
2020.2171,0.007457
2022.0808,0.007296
2023.9444,0.007730
2025.8081,0.006880
2027.6718,0.006613
2029.5355,0.007016
2031.3991,0.007643
2033.2628,0.007335
2035.1265,0.007734
2036.9901,0.008327
2038.8538,0.009369
2040.7175,0.008834
2042.5811,0.009503
2044.4448,0.009212
2046.3085,0.009648
2048.1721,0.010475
2050.0358,0.011587
2051.8995,0.012452
2053.7631,0.013030
2055.6268,0.013106
2057.4905,0.013070
2059.3542,0.012331
2061.2178,0.012999
2063.0815,0.013741
2064.9452,0.014647
2066.8088,0.014835
2068.6725,0.014989
2070.5362,0.015471
2072.3998,0.016156
2074.2635,0.015467
2076.1272,0.015378
2077.9908,0.016080
2079.8545,0.016819
2081.7182,0.016832
2083.5819,0.016372
2085.4455,0.016236
2087.3092,0.016568
2089.1729,0.016373
2091.0365,0.016276
2092.9002,0.016362
2094.7639,0.016467
2096.6275,0.016438
2098.4912,0.017023
2100.3549,0.017252
2102.2185,0.017122
2104.0822,0.016650
2105.9459,0.016753
2107.8095,0.017066
2109.6732,0.017375
2111.5369,0.017178
2113.4006,0.016920
2115.2642,0.016739
2117.1279,0.016646
2118.9916,0.016705
2120.8552,0.016802
2122.7189,0.017248
2124.5826,0.017814
2126.4462,0.017448
2128.3099,0.016907
2130.1736,0.016104
2132.0372,0.015741
2133.9009,0.015127
2135.7646,0.015595
2137.6282,0.015816
2139.4919,0.015570
2141.3556,0.014127
2143.2193,0.012842
2145.0829,0.012840
2146.9466,0.013206
2148.8103,0.012146
2150.6739,0.010782
2152.5376,0.009778
2154.4013,0.010031
2156.2649,0.007900
2158.1286,0.007178
2159.9923,0.007717
2161.8559,0.009395
2163.7196,0.011142
2165.5833,0.011332
2167.4470,0.011103
2169.3106,0.010827
2171.1743,0.011843
2173.0380,0.012838
2174.9016,0.011841
2176.7653,0.013109
2178.6290,0.013856
2180.4926,0.012987
2182.3563,0.011920
2184.2200,0.013363
2186.0836,0.013882
2187.9473,0.013677
2189.8110,0.013400
2191.6746,0.013815
2193.5383,0.013870
2195.4020,0.014307
2197.2657,0.014573
2199.1293,0.015254
2200.9930,0.015912
2202.8567,0.016471
2204.7203,0.015679
2206.5840,0.015106
2208.4477,0.015869
2210.3113,0.016500
2212.1750,0.015491
2214.0387,0.016075
2215.9023,0.017058
2217.7660,0.016827
2219.6297,0.016183
2221.4934,0.016567
2223.3570,0.016945
2225.2207,0.017470
2227.0844,0.017414
2228.9480,0.018115
2230.8117,0.018694
2232.6754,0.018630
2234.5390,0.018678
2236.4027,0.019515
2238.2664,0.019394
2240.1300,0.018832
2241.9937,0.018505
2243.8574,0.018629
2245.7210,0.019081
2247.5847,0.019713
2249.4484,0.019479
2251.3121,0.019640
2253.1757,0.019727
2255.0394,0.019871
2256.9031,0.020050
2258.7667,0.020484
2260.6304,0.020987
2262.4941,0.021150
2264.3577,0.021018
2266.2214,0.021163
2268.0851,0.021377
2269.9487,0.021915
2271.8124,0.022489
2273.6761,0.022714
2275.5397,0.023064
2277.4034,0.023303
2279.2671,0.023087
2281.1308,0.023626
2282.9944,0.024366
2284.8581,0.024383
2286.7218,0.024066
2288.5854,0.023820
2290.4491,0.023850
2292.3128,0.024274
2294.1764,0.024263
2296.0401,0.024010
2297.9038,0.024173
2299.7674,0.024252
2301.6311,0.024324
2303.4948,0.024423
2305.3585,0.024436
2307.2221,0.024440
2309.0858,0.024424
2310.9495,0.024610
2312.8131,0.024394
2314.6768,0.024182
2316.5405,0.024569
2318.4041,0.024941
2320.2678,0.024789
2322.1315,0.024827
2323.9951,0.025027
2325.8588,0.024638
2327.7225,0.023842
2329.5861,0.023639
2331.4498,0.023738
2333.3135,0.023612
2335.1772,0.023234
2337.0408,0.023126
2338.9045,0.023510
2340.7682,0.024173
2342.6318,0.024434
2344.4955,0.024684
2346.3592,0.024558
2348.2228,0.023659
2350.0865,0.022952
2351.9502,0.023007
2353.8138,0.023105
2355.6775,0.023224
2357.5412,0.023052
2359.4049,0.022765
2361.2685,0.023106
2363.1322,0.023227
2364.9959,0.023231
2366.8595,0.023582
2368.7232,0.023665
2370.5869,0.024239
2372.4505,0.024677
2374.3142,0.024792
2376.1779,0.024987
2378.0415,0.024909
2379.9052,0.024798
2381.7689,0.024553
2383.6325,0.024346
2385.4962,0.024819
2387.3599,0.024998
2389.2236,0.024728
2391.0872,0.024389
2392.9509,0.024444
2394.8146,0.024846
2396.6782,0.024941
2398.5419,0.024855
2400.4056,0.024878
2402.2692,0.024774
2404.1329,0.024897
2405.9966,0.024922
2407.8602,0.024973
2409.7239,0.024999
2411.5876,0.025085
2413.4512,0.025234
2415.3149,0.025351
2417.1786,0.025174
2419.0423,0.025427
2420.9059,0.025658
2422.7696,0.025738
2424.6333,0.026034
2426.4969,0.026056
2428.3606,0.025951
2430.2243,0.025762
2432.0879,0.025692
2433.9516,0.026060
2435.8153,0.026069
2437.6789,0.026287
2439.5426,0.026242
2441.4063,0.025995
2443.2700,0.025815
2445.1336,0.026186
2446.9973,0.026443
2448.8610,0.026431
2450.7246,0.026278
2452.5883,0.025979
2454.4520,0.026085
2456.3156,0.026282
2458.1793,0.026465
2460.0430,0.026682
2461.9066,0.026267
2463.7703,0.025760
2465.6340,0.025473
2467.4976,0.025558
2469.3613,0.025799
2471.2250,0.025942
2473.0887,0.026169
2474.9523,0.026109
2476.8160,0.025956
2478.6797,0.025737
2480.5433,0.025763
2482.4070,0.026240
2484.2707,0.026530
2486.1343,0.026698
2487.9980,0.026781
2489.8617,0.026788
2491.7253,0.027139
2493.5890,0.027207
2495.4527,0.027174
2497.3164,0.027217
2499.1800,0.027164
2501.0437,0.027206
2502.9074,0.027286
2504.7710,0.027699
2506.6347,0.027731
2508.4984,0.027231
2510.3620,0.027191
2512.2257,0.027715
2514.0894,0.027964
2515.9530,0.027787
2517.8167,0.027613
2519.6804,0.027732
2521.5440,0.028291
2523.4077,0.028444
2525.2714,0.028279
2527.1351,0.028307
