Wavenumber,Intensity
650.4205,0.199847
652.2841,0.197064
654.1478,0.193921
656.0115,0.188552
657.8751,0.186003
659.7388,0.183038
661.6025,0.179981
663.4661,0.178507
665.3298,0.175579
667.1935,0.175407
669.0571,0.179288
670.9208,0.177155
672.7845,0.176558
674.6481,0.176623
676.5118,0.176149
678.3755,0.175561
680.2392,0.176699
682.1028,0.177211
683.9665,0.176978
685.8302,0.177045
687.6938,0.177917
689.5575,0.177902
691.4212,0.178811
693.2848,0.179567
695.1485,0.180699
697.0122,0.181753
698.8758,0.182751
700.7395,0.183629
702.6032,0.183393
704.4669,0.180833
706.3305,0.176831
708.1942,0.170856
710.0579,0.163568
711.9215,0.156075
713.7852,0.149044
715.6489,0.141514
717.5125,0.135378
719.3762,0.130924
721.2399,0.126484
723.1035,0.121566
724.9672,0.117289
726.8309,0.113546
728.6945,0.110196
730.5582,0.106695
732.4219,0.103196
734.2856,0.100509
736.1492,0.098670
738.0129,0.097912
739.8766,0.098140
741.7402,0.099165
743.6039,0.101701
745.4676,0.103729
747.3312,0.104078
749.1949,0.104300
751.0586,0.104258
752.9222,0.103525
754.7859,0.102930
756.6496,0.102686
758.5132,0.102335
760.3769,0.101502
762.2406,0.100322
764.1043,0.099070
765.9679,0.098063
767.8316,0.097130
769.6953,0.096644
771.5589,0.096058
773.4226,0.095335
775.2863,0.095257
777.1499,0.095603
779.0136,0.095713
780.8773,0.095705
782.7409,0.096343
784.6046,0.097768
786.4683,0.099160
788.3320,0.100138
790.1956,0.101205
792.0593,0.102372
793.9230,0.103297
795.7866,0.104596
797.6503,0.105907
799.5140,0.107103
801.3776,0.107704
803.2413,0.107741
805.1050,0.107522
806.9686,0.107081
808.8323,0.105978
810.6960,0.103812
812.5596,0.101367
814.4233,0.099243
816.2870,0.096820
818.1507,0.094412
820.0143,0.092604
821.8780,0.091236
823.7417,0.090558
825.6053,0.091187
827.4690,0.092859
829.3327,0.094150
831.1963,0.090650
833.0600,0.081806
834.9237,0.074332
836.7873,0.071286
838.6510,0.070550
840.5147,0.070474
842.3784,0.070398
844.2420,0.070137
846.1057,0.069947
847.9694,0.069816
849.8330,0.069370
851.6967,0.068833
853.5604,0.068597
855.4240,0.068413
857.2877,0.068076
859.1514,0.067624
861.0150,0.067271
862.8787,0.066905
864.7424,0.066446
866.6060,0.065981
868.4697,0.065570
870.3334,0.065336
872.1971,0.065102
874.0607,0.064961
875.9244,0.065206
877.7881,0.065493
879.6517,0.065955
881.5154,0.066772
883.3791,0.067705
885.2427,0.068895
887.1064,0.070145
888.9701,0.071169
890.8337,0.072220
892.6974,0.073245
894.5611,0.074344
896.4247,0.075619
898.2884,0.076901
900.1521,0.078475
902.0158,0.080506
903.8794,0.083127
905.7431,0.086524
907.6068,0.090863
909.4704,0.095739
911.3341,0.101068
913.1978,0.107234
915.0614,0.110512
916.9251,0.104411
918.7888,0.092056
920.6524,0.082828
922.5161,0.079075
924.3798,0.078138
926.2435,0.078146
928.1071,0.078361
929.9708,0.078673
931.8345,0.079015
933.6981,0.079140
935.5618,0.079169
937.4255,0.079313
939.2891,0.079400
941.1528,0.079412
943.0165,0.079421
944.8801,0.079716
946.7438,0.080551
948.6075,0.081888
950.4711,0.083536
952.3348,0.085311
954.1985,0.087307
956.0622,0.089529
957.9258,0.092032
959.7895,0.094849
961.6532,0.097737
963.5168,0.100777
965.3805,0.104154
967.2442,0.108072
969.1078,0.112497
970.9715,0.117284
972.8352,0.122787
974.6988,0.130034
976.5625,0.140865
978.4262,0.157488
980.2899,0.178868
982.1535,0.187393
984.0172,0.165765
985.8809,0.137104
987.7445,0.124735
989.6082,0.123304
991.4719,0.123943
993.3355,0.124659
995.1992,0.125144
997.0629,0.125496
998.9265,0.125714
1000.7902,0.125906
1002.6539,0.126181
1004.5175,0.126413
1006.3812,0.126851
1008.2449,0.127649
1010.1086,0.128486
1011.9722,0.129271
1013.8359,0.129967
1015.6996,0.130443
1017.5632,0.130589
1019.4269,0.130482
1021.2906,0.130087
1023.1542,0.129345
1025.0179,0.128546
1026.8816,0.127774
1028.7452,0.126959
1030.6089,0.126333
1032.4726,0.126010
1034.3362,0.125966
1036.1999,0.126142
1038.0636,0.126505
1039.9273,0.127170
1041.7909,0.128269
1043.6546,0.129689
1045.5183,0.131182
1047.3819,0.131990
1049.2456,0.130412
1051.1093,0.124765
1052.9729,0.116076
1054.8366,0.107754
1056.7003,0.101963
1058.5639,0.098496
1060.4276,0.096549
1062.2913,0.095579
1064.1550,0.095366
1066.0186,0.096190
1067.8823,0.098173
1069.7460,0.101138
1071.6096,0.104657
1073.4733,0.107917
1075.3370,0.110405
1077.2006,0.111964
1079.0643,0.112636
1080.9280,0.112691
1082.7916,0.112496
1084.6553,0.112399
1086.5190,0.112805
1088.3826,0.113841
1090.2463,0.115578
1092.1100,0.118159
1093.9737,0.121657
1095.8373,0.126105
1097.7010,0.131212
1099.5647,0.136615
1101.4283,0.142038
1103.2920,0.146900
1105.1557,0.150189
1107.0193,0.150569
1108.8830,0.146760
1110.7467,0.138805
1112.6103,0.128336
1114.4740,0.117311
1116.3377,0.107316
1118.2014,0.099213
1120.0650,0.093248
1121.9287,0.089185
1123.7924,0.086491
1125.6560,0.084496
1127.5197,0.082687
1129.3834,0.080982
1131.2470,0.079460
1133.1107,0.078297
1134.9744,0.077752
1136.8380,0.077863
1138.7017,0.078517
1140.5654,0.079487
1142.4290,0.080413
1144.2927,0.081181
1146.1564,0.081722
1148.0201,0.081872
1149.8837,0.081656
1151.7474,0.081037
1153.6111,0.080021
1155.4747,0.078846
1157.3384,0.077574
1159.2021,0.076172
1161.0657,0.074829
1162.9294,0.073815
1164.7931,0.073350
1166.6567,0.073564
1168.5204,0.074478
1170.3841,0.075910
1172.2477,0.076812
1174.1114,0.075569
1175.9751,0.071795
1177.8388,0.067159
1179.7024,0.063589
1181.5661,0.061657
1183.4298,0.060962
1185.2934,0.060920
1187.1571,0.061185
1189.0208,0.061614
1190.8844,0.062000
1192.7481,0.062252
1194.6118,0.062598
1196.4754,0.063119
1198.3391,0.063647
1200.2028,0.064099
1202.0665,0.064493
1203.9301,0.064854
1205.7938,0.065145
1207.6575,0.065388
1209.5211,0.065670
1211.3848,0.066003
1213.2485,0.066419
1215.1121,0.066914
1216.9758,0.067476
1218.8395,0.068062
1220.7031,0.068649
1222.5668,0.069301
1224.4305,0.070019
1226.2941,0.070674
1228.1578,0.071221
1230.0215,0.071771
1231.8852,0.072330
1233.7488,0.072861
1235.6125,0.073351
1237.4762,0.073803
1239.3398,0.074271
1241.2035,0.074777
1243.0672,0.075352
1244.9308,0.075895
1246.7945,0.076425
1248.6582,0.077086
1250.5218,0.077716
1252.3855,0.078329
1254.2492,0.078931
1256.1129,0.079512
1257.9765,0.080225
1259.8402,0.081128
1261.7039,0.082076
1263.5675,0.082946
1265.4312,0.083708
1267.2949,0.084142
1269.1585,0.084239
1271.0222,0.084243
1272.8859,0.084325
1274.7495,0.084587
1276.6132,0.085186
1278.4769,0.086129
1280.3405,0.087325
1282.2042,0.088732
1284.0679,0.090329
1285.9316,0.092242
1287.7952,0.094602
1289.6589,0.097304
1291.5226,0.100265
1293.3862,0.103624
1295.2499,0.107541
1297.1136,0.112210
1298.9772,0.117715
1300.8409,0.124212
1302.7046,0.130883
1304.5682,0.135153
1306.4319,0.133648
1308.2956,0.123666
1310.1592,0.106571
1312.0229,0.089566
1313.8866,0.078836
1315.7503,0.075061
1317.6139,0.075468
1319.4776,0.077682
1321.3413,0.080192
1323.2049,0.082683
1325.0686,0.085245
1326.9323,0.087677
1328.7959,0.090012
1330.6596,0.092206
1332.5233,0.093849
1334.3869,0.094756
1336.2506,0.095427
1338.1143,0.096790
1339.9780,0.098682
1341.8416,0.099283
1343.7053,0.099091
1345.5690,0.099628
1347.4326,0.100598
1349.2963,0.101826
1351.1600,0.103193
1353.0236,0.104772
1354.8873,0.106817
1356.7510,0.108749
1358.6146,0.110202
1360.4783,0.112449
1362.3420,0.116608
1364.2056,0.120104
1366.0693,0.121489
1367.9330,0.123931
1369.7967,0.126897
1371.6603,0.129095
1373.5240,0.132722
1375.3877,0.137084
1377.2513,0.139594
1379.1150,0.142997
1380.9787,0.147689
1382.8423,0.152415
1384.7060,0.157460
1386.5697,0.164530
1388.4333,0.172604
1390.2970,0.176153
1392.1607,0.177172
1394.0244,0.177132
1395.8880,0.173032
1397.7517,0.165776
1399.6154,0.157538
1401.4790,0.149342
1403.3427,0.141766
1405.2064,0.130669
1407.0700,0.115563
1408.9337,0.100939
1410.7974,0.087887
1412.6610,0.078711
1414.5247,0.074577
1416.3884,0.074547
1418.2520,0.079007
1420.1157,0.086515
1421.9794,0.089377
1423.8431,0.087510
1425.7067,0.080348
1427.5704,0.072292
1429.4341,0.067309
1431.2977,0.065257
1433.1614,0.064905
1435.0251,0.066104
1436.8887,0.069442
1438.7524,0.071166
1440.6161,0.071340
1442.4797,0.072479
1444.3434,0.073433
1446.2071,0.074100
1448.0707,0.074600
1449.9344,0.073251
1451.7981,0.070437
1453.6618,0.067620
1455.5254,0.066844
1457.3891,0.070720
1459.2528,0.072320
1461.1164,0.070673
1462.9801,0.070208
1464.8438,0.070758
1466.7074,0.069795
1468.5711,0.067322
1470.4348,0.065817
1472.2984,0.066259
1474.1621,0.067036
1476.0258,0.066463
1477.8895,0.065897
1479.7531,0.065393
1481.6168,0.065563
1483.4805,0.065469
1485.3441,0.065299
1487.2078,0.065953
1489.0715,0.067823
1490.9351,0.069441
1492.7988,0.068745
1494.6625,0.068427
1496.5261,0.070545
1498.3898,0.072647
1500.2535,0.072900
1502.1171,0.072090
1503.9808,0.071374
1505.8445,0.073679
1507.7082,0.080839
1509.5718,0.079934
1511.4355,0.078800
1513.2992,0.079114
1515.1628,0.079852
1517.0265,0.081539
1518.8902,0.082335
1520.7538,0.083583
1522.6175,0.086620
1524.4812,0.086527
1526.3448,0.087413
1528.2085,0.088359
1530.0722,0.088236
1531.9359,0.089147
1533.7995,0.091878
1535.6632,0.091776
1537.5269,0.090881
1539.3905,0.094503
1541.2542,0.101179
1543.1179,0.101817
1544.9815,0.102818
1546.8452,0.103353
1548.7089,0.104143
1550.5725,0.106397
1552.4362,0.107797
1554.2999,0.108907
1556.1635,0.110494
1558.0272,0.115413
1559.8909,0.128039
1561.7546,0.124294
1563.6182,0.122394
1565.4819,0.124245
1567.3456,0.126496
1569.2092,0.130225
1571.0729,0.134092
1572.9366,0.134156
1574.8002,0.136879
1576.6639,0.143737
1578.5276,0.146294
1580.3912,0.146244
1582.2549,0.148439
1584.1186,0.150653
1585.9822,0.152297
1587.8459,0.153256
1589.7096,0.153800
1591.5733,0.153680
1593.4369,0.153328
1595.3006,0.152502
1597.1643,0.151083
1599.0279,0.149164
1600.8916,0.147354
1602.7553,0.145503
1604.6189,0.143646
1606.4826,0.142087
1608.3463,0.140887
1610.2099,0.139192
1612.0736,0.136545
1613.9373,0.133201
1615.8010,0.130223
1617.6646,0.125370
1619.5283,0.119089
1621.3920,0.114769
1623.2556,0.109783
1625.1193,0.102995
1626.9830,0.096588
1628.8466,0.089052
1630.7103,0.081102
1632.5740,0.074765
1634.4376,0.069189
1636.3013,0.062988
1638.1650,0.058713
1640.0286,0.057195
1641.8923,0.056318
1643.7560,0.056444
1645.6197,0.057861
1647.4833,0.060738
1649.3470,0.061526
1651.2107,0.062822
1653.0743,0.068422
1654.9380,0.072472
1656.8017,0.070723
1658.6653,0.070777
1660.5290,0.071070
1662.3927,0.071171
1664.2563,0.070153
1666.1200,0.068440
1667.9837,0.067314
1669.8474,0.066994
1671.7110,0.066294
1673.5747,0.066427
1675.4384,0.068732
1677.3020,0.071150
1679.1657,0.072530
1681.0294,0.075446
1682.8930,0.079242
1684.7567,0.085354
1686.6204,0.086245
1688.4840,0.084605
1690.3477,0.083219
1692.2114,0.080743
1694.0750,0.078020
1695.9387,0.075389
1697.8024,0.071875
1699.6661,0.069576
1701.5297,0.064562
1703.3934,0.059060
1705.2571,0.053204
1707.1207,0.045831
1708.9844,0.040343
1710.8481,0.036293
1712.7117,0.032903
1714.5754,0.030897
1716.4391,0.029606
1718.3027,0.029017
1720.1664,0.027901
1722.0301,0.026955
1723.8937,0.025523
1725.7574,0.023861
1727.6211,0.022249
1729.4848,0.020804
1731.3484,0.019542
1733.2121,0.019195
1735.0758,0.018559
1736.9394,0.017649
1738.8031,0.017279
1740.6668,0.017287
1742.5304,0.017042
1744.3941,0.016823
1746.2578,0.016328
1748.1214,0.016092
1749.9851,0.015954
1751.8488,0.016052
1753.7125,0.015797
1755.5761,0.015581
1757.4398,0.015648
1759.3035,0.015794
1761.1671,0.015905
1763.0308,0.015917
1764.8945,0.015418
1766.7581,0.015316
1768.6218,0.015263
1770.4855,0.015317
1772.3491,0.015624
1774.2128,0.015748
1776.0765,0.015416
1777.9401,0.015327
1779.8038,0.015381
1781.6675,0.015591
1783.5312,0.015485
1785.3948,0.015750
1787.2585,0.015699
1789.1222,0.015448
1790.9858,0.015589
1792.8495,0.015997
1794.7132,0.015711
1796.5768,0.015491
1798.4405,0.015446
1800.3042,0.015724
1802.1678,0.015890
1804.0315,0.015968
1805.8952,0.015824
1807.7589,0.015887
1809.6225,0.015979
1811.4862,0.015988
1813.3499,0.015781
1815.2135,0.015780
1817.0772,0.015745
1818.9409,0.015847
1820.8045,0.015838
1822.6682,0.015672
1824.5319,0.015604
1826.3955,0.015660
1828.2592,0.015566
1830.1229,0.015993
1831.9865,0.015759
1833.8502,0.015540
1835.7139,0.015693
1837.5776,0.015739
1839.4412,0.015415
1841.3049,0.015547
1843.1686,0.015871
1845.0322,0.016024
1846.8959,0.015472
1848.7596,0.015598
1850.6232,0.015790
1852.4869,0.015928
1854.3506,0.015941
1856.2142,0.016140
1858.0779,0.016301
1859.9416,0.016073
1861.8052,0.015857
1863.6689,0.015716
1865.5326,0.015455
1867.3963,0.015704
1869.2599,0.015957
1871.1236,0.015827
1872.9873,0.015482
1874.8509,0.015860
1876.7146,0.015917
1878.5783,0.015927
1880.4419,0.015648
1882.3056,0.015703
1884.1693,0.015953
1886.0329,0.015954
1887.8966,0.015683
1889.7603,0.015899
1891.6240,0.015922
1893.4876,0.015974
1895.3513,0.015893
1897.2150,0.015775
1899.0786,0.015793
1900.9423,0.015811
1902.8060,0.016027
1904.6696,0.016288
1906.5333,0.016091
1908.3970,0.016167
1910.2606,0.016078
1912.1243,0.015861
1913.9880,0.015531
1915.8516,0.015566
1917.7153,0.015728
1919.5790,0.015699
1921.4427,0.015517
1923.3063,0.015656
1925.1700,0.014924
1927.0337,0.014763
1928.8973,0.015132
1930.7610,0.015546
1932.6247,0.015528
1934.4883,0.015906
1936.3520,0.015782
1938.2157,0.014944
1940.0793,0.014797
1941.9430,0.015369
1943.8067,0.014954
1945.6704,0.014516
1947.5340,0.013911
1949.3977,0.013509
1951.2614,0.013171
1953.1250,0.013288
1954.9887,0.012778
1956.8524,0.012968
1958.7160,0.012607
1960.5797,0.011389
1962.4434,0.009976
1964.3070,0.009899
1966.1707,0.009956
1968.0344,0.009376
1969.8980,0.008685
1971.7617,0.008294
1973.6254,0.007088
1975.4891,0.007963
1977.3527,0.009031
1979.2164,0.008965
1981.0801,0.009594
1982.9437,0.011573
1984.8074,0.011588
1986.6711,0.011724
1988.5347,0.011377
1990.3984,0.011729
1992.2621,0.011386
1994.1257,0.011810
1995.9894,0.011921
1997.8531,0.012230
1999.7167,0.012088
2001.5804,0.011669
2003.4441,0.010705
2005.3078,0.009969
2007.1714,0.008949
2009.0351,0.010266
2010.8988,0.011204
2012.7624,0.010366
2014.6261,0.008763
2016.4898,0.008637
2018.3534,0.010146
2020.2171,0.010077
2022.0808,0.008553
2023.9444,0.009500
2025.8081,0.009199
2027.6718,0.008849
2029.5355,0.009176
2031.3991,0.010352
2033.2628,0.009771
2035.1265,0.010527
2036.9901,0.009856
2038.8538,0.009825
2040.7175,0.010296
2042.5811,0.011431
2044.4448,0.012398
2046.3085,0.013383
2048.1721,0.013819
2050.0358,0.014576
2051.8995,0.015037
2053.7631,0.015209
2055.6268,0.015499
2057.4905,0.016481
2059.3542,0.017554
2061.2178,0.017734
2063.0815,0.016600
2064.9452,0.016443
2066.8088,0.016377
2068.6725,0.016164
2070.5362,0.016356
2072.3998,0.016547
2074.2635,0.016958
2076.1272,0.018095
2077.9908,0.018427
2079.8545,0.018361
2081.7182,0.018292
2083.5819,0.018536
2085.4455,0.019278
2087.3092,0.019871
2089.1729,0.019895
2091.0365,0.019407
2092.9002,0.018283
2094.7639,0.017631
2096.6275,0.017934
2098.4912,0.018281
2100.3549,0.018851
2102.2185,0.019049
2104.0822,0.019331
2105.9459,0.019423
2107.8095,0.018919
2109.6732,0.019553
2111.5369,0.019956
2113.4006,0.019937
2115.2642,0.019804
2117.1279,0.019672
2118.9916,0.019411
2120.8552,0.019513
2122.7189,0.019476
2124.5826,0.019209
2126.4462,0.019015
2128.3099,0.019174
2130.1736,0.018761
2132.0372,0.017941
2133.9009,0.017469
2135.7646,0.017947
2137.6282,0.017999
2139.4919,0.017238
2141.3556,0.016238
2143.2193,0.015757
2145.0829,0.015103
2146.9466,0.015239
2148.8103,0.015215
2150.6739,0.014007
2152.5376,0.013039
2154.4013,0.012397
2156.2649,0.010766
2158.1286,0.008898
2159.9923,0.008637
2161.8559,0.011081
2163.7196,0.011661
2165.5833,0.013002
2167.4470,0.013852
2169.3106,0.013772
2171.1743,0.012382
2173.0380,0.012091
2174.9016,0.011752
2176.7653,0.012581
2178.6290,0.014056
2180.4926,0.015823
2182.3563,0.015556
2184.2200,0.015067
2186.0836,0.014872
2187.9473,0.014932
2189.8110,0.014841
2191.6746,0.015995
2193.5383,0.017044
2195.4020,0.016744
2197.2657,0.016811
2199.1293,0.017664
2200.9930,0.016759
2202.8567,0.016382
2204.7203,0.017619
2206.5840,0.018392
2208.4477,0.017581
2210.3113,0.017479
2212.1750,0.017179
2214.0387,0.018091
2215.9023,0.019324
2217.7660,0.020311
2219.6297,0.019763
2221.4934,0.019063
2223.3570,0.018884
2225.2207,0.019331
2227.0844,0.018740
2228.9480,0.019494
2230.8117,0.020671
2232.6754,0.020039
2234.5390,0.020128
2236.4027,0.021009
2238.2664,0.021286
2240.1300,0.021427
2241.9937,0.021281
2243.8574,0.020872
2245.7210,0.020114
2247.5847,0.020956
2249.4484,0.022079
2251.3121,0.022018
2253.1757,0.021758
2255.0394,0.021961
2256.9031,0.022247
2258.7667,0.022373
2260.6304,0.022072
2262.4941,0.022667
2264.3577,0.022963
2266.2214,0.023077
2268.0851,0.023603
2269.9487,0.024240
2271.8124,0.024468
2273.6761,0.023963
2275.5397,0.024147
2277.4034,0.024924
2279.2671,0.025273
2281.1308,0.025634
2282.9944,0.025981
2284.8581,0.026155
2286.7218,0.026254
2288.5854,0.026270
2290.4491,0.025942
2292.3128,0.026190
2294.1764,0.026353
2296.0401,0.026162
2297.9038,0.026112
2299.7674,0.026082
2301.6311,0.026414
2303.4948,0.026622
2305.3585,0.026554
2307.2221,0.026558
2309.0858,0.026465
2310.9495,0.026558
2312.8131,0.026822
2314.6768,0.026671
2316.5405,0.026307
2318.4041,0.026347
2320.2678,0.026955
2322.1315,0.027201
2323.9951,0.027138
2325.8588,0.027012
2327.7225,0.026252
2329.5861,0.025997
2331.4498,0.026225
2333.3135,0.026257
2335.1772,0.026258
2337.0408,0.026175
2338.9045,0.025915
2340.7682,0.026154
2342.6318,0.026453
2344.4955,0.026713
2346.3592,0.026433
2348.2228,0.025902
2350.0865,0.025734
2351.9502,0.025984
2353.8138,0.025676
2355.6775,0.025593
2357.5412,0.025835
2359.4049,0.025564
2361.2685,0.025299
2363.1322,0.025598
2364.9959,0.025916
2366.8595,0.026214
2368.7232,0.026498
2370.5869,0.026843
2372.4505,0.027022
2374.3142,0.026964
2376.1779,0.027080
2378.0415,0.027575
2379.9052,0.027266
2381.7689,0.026827
2383.6325,0.027081
2385.4962,0.027165
2387.3599,0.026918
2389.2236,0.026873
2391.0872,0.026891
2392.9509,0.026900
2394.8146,0.027018
2396.6782,0.027255
2398.5419,0.027417
2400.4056,0.027470
2402.2692,0.027530
2404.1329,0.027179
2405.9966,0.027346
2407.8602,0.027794
2409.7239,0.027624
2411.5876,0.027661
2413.4512,0.027454
2415.3149,0.027542
2417.1786,0.027651
2419.0423,0.027646
2420.9059,0.027781
2422.7696,0.027904
2424.6333,0.028134
2426.4969,0.028386
2428.3606,0.028421
2430.2243,0.028103
2432.0879,0.028183
2433.9516,0.028498
2435.8153,0.028633
2437.6789,0.028423
2439.5426,0.028449
2441.4063,0.028733
2443.2700,0.028817
2445.1336,0.028775
2446.9973,0.028783
2448.8610,0.028916
2450.7246,0.028936
2452.5883,0.028805
2454.4520,0.028675
2456.3156,0.028509
2458.1793,0.028569
2460.0430,0.028653
2461.9066,0.028330
2463.7703,0.027845
2465.6340,0.027847
2467.4976,0.028205
2469.3613,0.028498
2471.2250,0.028679
2473.0887,0.028804
2474.9523,0.028871
2476.8160,0.028392
2478.6797,0.027988
2480.5433,0.028355
2482.4070,0.029137
2484.2707,0.029172
2486.1343,0.028976
2487.9980,0.028925
2489.8617,0.029170
2491.7253,0.029572
2493.5890,0.029729
2495.4527,0.029620
2497.3164,0.029334
2499.1800,0.029740
2501.0437,0.030096
2502.9074,0.029629
2504.7710,0.029505
2506.6347,0.030059
2508.4984,0.030277
2510.3620,0.030573
2512.2257,0.030445
2514.0894,0.030059
2515.9530,0.030208
2517.8167,0.029971
2519.6804,0.029929
2521.5440,0.030720
2523.4077,0.030750
2525.2714,0.030601
2527.1351,0.030841
