Wavenumber,Intensity
650.4205,0.272306
652.2841,0.282739
654.1478,0.296635
656.0115,0.312270
657.8751,0.329356
659.7388,0.346377
661.6025,0.370732
663.4661,0.394460
665.3298,0.413305
667.1935,0.425175
669.0571,0.412955
670.9208,0.382290
672.7845,0.354272
674.6481,0.327670
676.5118,0.307796
678.3755,0.291616
680.2392,0.280010
682.1028,0.268357
683.9665,0.254160
685.8302,0.239406
687.6938,0.226824
689.5575,0.216766
691.4212,0.207279
693.2848,0.195483
695.1485,0.185917
697.0122,0.180644
698.8758,0.176923
700.7395,0.174608
702.6032,0.173075
704.4669,0.170092
706.3305,0.166793
708.1942,0.161913
710.0579,0.156016
711.9215,0.149681
713.7852,0.143889
715.6489,0.138465
717.5125,0.133537
719.3762,0.129556
721.2399,0.126167
723.1035,0.122422
724.9672,0.119142
726.8309,0.116192
728.6945,0.113397
730.5582,0.110773
732.4219,0.108053
734.2856,0.105703
736.1492,0.104437
738.0129,0.103236
739.8766,0.104226
741.7402,0.107397
743.6039,0.110392
745.4676,0.112741
747.3312,0.114267
749.1949,0.114427
751.0586,0.114076
752.9222,0.113972
754.7859,0.114284
756.6496,0.114875
758.5132,0.115275
760.3769,0.115312
762.2406,0.115595
764.1043,0.116408
765.9679,0.117205
767.8316,0.117505
769.6953,0.118675
771.5589,0.120041
773.4226,0.121488
775.2863,0.123554
777.1499,0.125852
779.0136,0.128679
780.8773,0.131034
782.7409,0.131839
784.6046,0.133174
786.4683,0.135365
788.3320,0.137497
790.1956,0.139437
792.0593,0.141485
793.9230,0.143812
795.7866,0.146564
797.6503,0.149500
799.5140,0.152470
801.3776,0.154573
803.2413,0.156129
805.1050,0.157414
806.9686,0.158091
808.8323,0.157796
810.6960,0.157337
812.5596,0.156726
814.4233,0.155913
816.2870,0.155191
818.1507,0.154454
820.0143,0.153717
821.8780,0.153724
823.7417,0.154887
825.6053,0.157521
827.4690,0.161243
829.3327,0.164315
831.1963,0.161650
833.0600,0.153073
834.9237,0.145869
836.7873,0.143669
838.6510,0.144044
840.5147,0.145545
842.3784,0.147482
844.2420,0.149590
846.1057,0.151770
847.9694,0.153926
849.8330,0.156088
851.6967,0.158322
853.5604,0.160727
855.4240,0.163231
857.2877,0.165434
859.1514,0.167532
861.0150,0.169403
862.8787,0.171461
864.7424,0.173776
866.6060,0.176375
868.4697,0.179259
870.3334,0.181941
872.1971,0.184390
874.0607,0.187337
875.9244,0.190807
877.7881,0.194409
879.6517,0.197679
881.5154,0.201094
883.3791,0.204340
885.2427,0.207202
887.1064,0.209970
888.9701,0.212720
890.8337,0.215242
892.6974,0.217536
894.5611,0.219834
896.4247,0.222710
898.2884,0.226207
900.1521,0.230584
902.0158,0.235440
903.8794,0.240981
905.7431,0.247798
907.6068,0.255672
909.4704,0.263839
911.3341,0.272905
913.1978,0.282707
915.0614,0.288064
916.9251,0.281812
918.7888,0.268391
920.6524,0.258697
922.5161,0.256196
924.3798,0.257524
926.2435,0.260272
928.1071,0.263732
929.9708,0.267482
931.8345,0.271047
933.6981,0.274746
935.5618,0.278735
937.4255,0.282562
939.2891,0.285842
941.1528,0.289372
943.0165,0.293097
944.8801,0.296727
946.7438,0.300294
948.6075,0.304005
950.4711,0.308012
952.3348,0.312267
954.1985,0.316539
956.0622,0.320854
957.9258,0.325249
959.7895,0.330070
961.6532,0.334997
963.5168,0.340010
965.3805,0.345474
967.2442,0.351559
969.1078,0.357941
970.9715,0.364709
972.8352,0.372257
974.6988,0.382017
976.5625,0.395134
978.4262,0.413768
980.2899,0.436183
982.1535,0.442028
984.0172,0.415713
985.8809,0.386128
987.7445,0.376620
989.6082,0.379734
991.4719,0.384804
993.3355,0.389685
995.1992,0.394316
997.0629,0.398509
998.9265,0.402250
1000.7902,0.405652
1002.6539,0.408546
1004.5175,0.410892
1006.3812,0.412101
1008.2449,0.411539
1010.1086,0.408181
1011.9722,0.401779
1013.8359,0.392547
1015.6996,0.380615
1017.5632,0.366311
1019.4269,0.350770
1021.2906,0.334176
1023.1542,0.317297
1025.0179,0.301430
1026.8816,0.286892
1028.7452,0.273483
1030.6089,0.261250
1032.4726,0.249837
1034.3362,0.239030
1036.1999,0.228870
1038.0636,0.219462
1039.9273,0.210873
1041.7909,0.203113
1043.6546,0.195964
1045.5183,0.189284
1047.3819,0.182620
1049.2456,0.175222
1051.1093,0.166535
1052.9729,0.157783
1054.8366,0.150991
1056.7003,0.146806
1058.5639,0.144575
1060.4276,0.143363
1062.2913,0.142295
1064.1550,0.141256
1066.0186,0.140544
1067.8823,0.140148
1069.7460,0.139981
1071.6096,0.140029
1073.4733,0.140072
1075.3370,0.139866
1077.2006,0.139559
1079.0643,0.139296
1080.9280,0.139049
1082.7916,0.139079
1084.6553,0.139460
1086.5190,0.139942
1088.3826,0.140625
1090.2463,0.141850
1092.1100,0.143513
1093.9737,0.145592
1095.8373,0.147987
1097.7010,0.150569
1099.5647,0.153358
1101.4283,0.156115
1103.2920,0.158409
1105.1557,0.159417
1107.0193,0.157931
1108.8830,0.153120
1110.7467,0.145153
1112.6103,0.135410
1114.4740,0.125646
1116.3377,0.116965
1118.2014,0.109741
1120.0650,0.104033
1121.9287,0.099803
1123.7924,0.096741
1125.6560,0.094077
1127.5197,0.091371
1129.3834,0.088681
1131.2470,0.086061
1133.1107,0.083585
1134.9744,0.081404
1136.8380,0.079542
1138.7017,0.077882
1140.5654,0.076389
1142.4290,0.075107
1144.2927,0.073873
1146.1564,0.072653
1148.0201,0.071587
1149.8837,0.070531
1151.7474,0.069589
1153.6111,0.068924
1155.4747,0.068470
1157.3384,0.068253
1159.2021,0.068184
1161.0657,0.068289
1162.9294,0.068716
1164.7931,0.069555
1166.6567,0.070877
1168.5204,0.072575
1170.3841,0.074315
1172.2477,0.075309
1174.1114,0.074502
1175.9751,0.071712
1177.8388,0.068161
1179.7024,0.065155
1181.5661,0.063366
1183.4298,0.062644
1185.2934,0.062422
1187.1571,0.062469
1189.0208,0.062502
1190.8844,0.062426
1192.7481,0.062423
1194.6118,0.062521
1196.4754,0.062613
1198.3391,0.062783
1200.2028,0.063117
1202.0665,0.063497
1203.9301,0.063915
1205.7938,0.064322
1207.6575,0.064670
1209.5211,0.065066
1211.3848,0.065514
1213.2485,0.065930
1215.1121,0.066271
1216.9758,0.066576
1218.8395,0.066865
1220.7031,0.067087
1222.5668,0.067228
1224.4305,0.067446
1226.2941,0.067709
1228.1578,0.067913
1230.0215,0.068160
1231.8852,0.068404
1233.7488,0.068666
1235.6125,0.068960
1237.4762,0.069241
1239.3398,0.069464
1241.2035,0.069734
1243.0672,0.070130
1244.9308,0.070424
1246.7945,0.070601
1248.6582,0.070946
1250.5218,0.071451
1252.3855,0.071915
1254.2492,0.072330
1256.1129,0.072780
1257.9765,0.073347
1259.8402,0.074054
1261.7039,0.074859
1263.5675,0.075627
1265.4312,0.076278
1267.2949,0.076623
1269.1585,0.076645
1271.0222,0.076641
1272.8859,0.076766
1274.7495,0.077061
1276.6132,0.077683
1278.4769,0.078592
1280.3405,0.079579
1282.2042,0.080788
1284.0679,0.082253
1285.9316,0.083914
1287.7952,0.085933
1289.6589,0.088237
1291.5226,0.090744
1293.3862,0.093626
1295.2499,0.097021
1297.1136,0.101126
1298.9772,0.105973
1300.8409,0.111613
1302.7046,0.117389
1304.5682,0.120957
1306.4319,0.119377
1308.2956,0.110515
1310.1592,0.095584
1312.0229,0.080602
1313.8866,0.071044
1315.7503,0.067665
1317.6139,0.067871
1319.4776,0.069691
1321.3413,0.071852
1323.2049,0.073952
1325.0686,0.076096
1326.9323,0.078257
1328.7959,0.080423
1330.6596,0.082493
1332.5233,0.084149
1334.3869,0.085089
1336.2506,0.085867
1338.1143,0.087522
1339.9780,0.089743
1341.8416,0.090461
1343.7053,0.090457
1345.5690,0.091291
1347.4326,0.092494
1349.2963,0.093883
1351.1600,0.095336
1353.0236,0.096788
1354.8873,0.098562
1356.7510,0.100198
1358.6146,0.101288
1360.4783,0.103071
1362.3420,0.106680
1364.2056,0.109552
1366.0693,0.110581
1367.9330,0.112670
1369.7967,0.115191
1371.6603,0.117082
1373.5240,0.120351
1375.3877,0.124337
1377.2513,0.126714
1379.1150,0.129784
1380.9787,0.133868
1382.8423,0.137952
1384.7060,0.142270
1386.5697,0.148378
1388.4333,0.155450
1390.2970,0.158559
1392.1607,0.159602
1394.0244,0.159932
1395.8880,0.156529
1397.7517,0.150029
1399.6154,0.142677
1401.4790,0.135346
1403.3427,0.129165
1405.2064,0.120704
1407.0700,0.108320
1408.9337,0.095417
1410.7974,0.083318
1412.6610,0.074365
1414.5247,0.069934
1416.3884,0.069450
1418.2520,0.073452
1420.1157,0.080313
1421.9794,0.082938
1423.8431,0.081556
1425.7067,0.075354
1427.5704,0.068232
1429.4341,0.063947
1431.2977,0.062031
1433.1614,0.061455
1435.0251,0.062484
1436.8887,0.065832
1438.7524,0.067488
1440.6161,0.067489
1442.4797,0.068384
1444.3434,0.069228
1446.2071,0.069953
1448.0707,0.070548
1449.9344,0.069408
1451.7981,0.066978
1453.6618,0.064583
1455.5254,0.064182
1457.3891,0.068104
1459.2528,0.069363
1461.1164,0.067855
1462.9801,0.067779
1464.8438,0.068806
1466.7074,0.068213
1468.5711,0.066046
1470.4348,0.064914
1472.2984,0.065950
1474.1621,0.066928
1476.0258,0.066178
1477.8895,0.065692
1479.7531,0.065340
1481.6168,0.065671
1483.4805,0.065610
1485.3441,0.065277
1487.2078,0.065895
1489.0715,0.067898
1490.9351,0.069462
1492.7988,0.068355
1494.6625,0.067857
1496.5261,0.070131
1498.3898,0.072126
1500.2535,0.071885
1502.1171,0.070788
1503.9808,0.069957
1505.8445,0.072370
1507.7082,0.079658
1509.5718,0.078433
1511.4355,0.077077
1513.2992,0.077085
1515.1628,0.077650
1517.0265,0.079332
1518.8902,0.080038
1520.7538,0.081270
1522.6175,0.084092
1524.4812,0.083845
1526.3448,0.084758
1528.2085,0.085426
1530.0722,0.084914
1531.9359,0.085791
1533.7995,0.088371
1535.6632,0.087823
1537.5269,0.086718
1539.3905,0.090303
1541.2542,0.096888
1543.1179,0.097313
1544.9815,0.097961
1546.8452,0.098160
1548.7089,0.098954
1550.5725,0.101192
1552.4362,0.102270
1554.2999,0.103065
1556.1635,0.104621
1558.0272,0.109658
1559.8909,0.122118
1561.7546,0.117917
1563.6182,0.115713
1565.4819,0.117299
1567.3456,0.119474
1569.2092,0.123043
1571.0729,0.126239
1572.9366,0.125842
1574.8002,0.128414
1576.6639,0.135220
1578.5276,0.137338
1580.3912,0.137058
1582.2549,0.138936
1584.1186,0.140816
1585.9822,0.142256
1587.8459,0.143026
1589.7096,0.143439
1591.5733,0.143332
1593.4369,0.142955
1595.3006,0.142112
1597.1643,0.140697
1599.0279,0.138922
1600.8916,0.137211
1602.7553,0.135339
1604.6189,0.133344
1606.4826,0.131581
1608.3463,0.130323
1610.2099,0.128742
1612.0736,0.126063
1613.9373,0.122917
1615.8010,0.120498
1617.6646,0.116239
1619.5283,0.110218
1621.3920,0.106243
1623.2556,0.102035
1625.1193,0.096343
1626.9830,0.091251
1628.8466,0.085418
1630.7103,0.078531
1632.5740,0.072739
1634.4376,0.067920
1636.3013,0.062717
1638.1650,0.058421
1640.0286,0.056664
1641.8923,0.055564
1643.7560,0.055222
1645.6197,0.056121
1647.4833,0.058512
1649.3470,0.059126
1651.2107,0.060391
1653.0743,0.066209
1654.9380,0.070146
1656.8017,0.068416
1658.6653,0.068794
1660.5290,0.069662
1662.3927,0.070305
1664.2563,0.069697
1666.1200,0.068187
1667.9837,0.067390
1669.8474,0.067429
1671.7110,0.066854
1673.5747,0.066865
1675.4384,0.068705
1677.3020,0.070540
1679.1657,0.071529
1681.0294,0.074103
1682.8930,0.077809
1684.7567,0.083901
1686.6204,0.084491
1688.4840,0.082849
1690.3477,0.081505
1692.2114,0.079140
1694.0750,0.076807
1695.9387,0.074721
1697.8024,0.071275
1699.6661,0.068827
1701.5297,0.063997
1703.3934,0.058829
1705.2571,0.053640
1707.1207,0.047165
1708.9844,0.042428
1710.8481,0.038698
1712.7117,0.035444
1714.5754,0.033298
1716.4391,0.031798
1718.3027,0.031319
1720.1664,0.030090
1722.0301,0.028992
1723.8937,0.027780
1725.7574,0.026401
1727.6211,0.025064
1729.4848,0.023831
1731.3484,0.022496
1733.2121,0.021891
1735.0758,0.021312
1736.9394,0.020599
1738.8031,0.020418
1740.6668,0.020475
1742.5304,0.019996
1744.3941,0.019664
1746.2578,0.019436
1748.1214,0.019309
1749.9851,0.018998
1751.8488,0.018693
1753.7125,0.018453
1755.5761,0.018483
1757.4398,0.018430
1759.3035,0.018383
1761.1671,0.018350
1763.0308,0.018260
1764.8945,0.018010
1766.7581,0.018128
1768.6218,0.018099
1770.4855,0.017784
1772.3491,0.017788
1774.2128,0.017737
1776.0765,0.017479
1777.9401,0.017533
1779.8038,0.017533
1781.6675,0.017817
1783.5312,0.017887
1785.3948,0.017997
1787.2585,0.017968
1789.1222,0.017993
1790.9858,0.018149
1792.8495,0.018356
1794.7132,0.017941
1796.5768,0.017936
1798.4405,0.018115
1800.3042,0.018290
1802.1678,0.018176
1804.0315,0.018349
1805.8952,0.018611
1807.7589,0.018620
1809.6225,0.018506
1811.4862,0.018582
1813.3499,0.018388
1815.2135,0.018295
1817.0772,0.018285
1818.9409,0.018360
1820.8045,0.018405
1822.6682,0.018522
1824.5319,0.018454
1826.3955,0.018453
1828.2592,0.018193
1830.1229,0.018132
1831.9865,0.017738
1833.8502,0.017593
1835.7139,0.017718
1837.5776,0.017659
1839.4412,0.017339
1841.3049,0.017369
1843.1686,0.017321
1845.0322,0.017168
1846.8959,0.016882
1848.7596,0.016935
1850.6232,0.017042
1852.4869,0.017202
1854.3506,0.017293
1856.2142,0.017458
1858.0779,0.017514
1859.9416,0.017596
1861.8052,0.017448
1863.6689,0.017429
1865.5326,0.017491
1867.3963,0.017427
1869.2599,0.017127
1871.1236,0.016802
1872.9873,0.016521
1874.8509,0.016706
1876.7146,0.016870
1878.5783,0.016918
1880.4419,0.016755
1882.3056,0.016670
1884.1693,0.016796
1886.0329,0.016727
1887.8966,0.016381
1889.7603,0.016398
1891.6240,0.016303
1893.4876,0.016434
1895.3513,0.016297
1897.2150,0.016176
1899.0786,0.016104
1900.9423,0.016254
1902.8060,0.016458
1904.6696,0.016340
1906.5333,0.015864
1908.3970,0.016074
1910.2606,0.016014
1912.1243,0.016022
1913.9880,0.016355
1915.8516,0.016443
1917.7153,0.015768
1919.5790,0.015393
1921.4427,0.015197
1923.3063,0.015851
1925.1700,0.015626
1927.0337,0.015193
1928.8973,0.015238
1930.7610,0.015078
1932.6247,0.014936
1934.4883,0.014939
1936.3520,0.014437
1938.2157,0.014272
1940.0793,0.014139
1941.9430,0.014233
1943.8067,0.012981
1945.6704,0.011854
1947.5340,0.012189
1949.3977,0.012723
1951.2614,0.011480
1953.1250,0.010771
1954.9887,0.011045
1956.8524,0.010795
1958.7160,0.009650
1960.5797,0.010005
1962.4434,0.008821
1964.3070,0.007303
1966.1707,0.005357
1968.0344,0.004486
1969.8980,0.004500
1971.7617,0.004555
1973.6254,0.004437
1975.4891,0.005083
1977.3527,0.005614
1979.2164,0.006237
1981.0801,0.005586
1982.9437,0.006797
1984.8074,0.008039
1986.6711,0.007928
1988.5347,0.007132
1990.3984,0.007375
1992.2621,0.007362
1994.1257,0.007574
1995.9894,0.007468
1997.8531,0.007995
1999.7167,0.008083
2001.5804,0.008560
2003.4441,0.007589
2005.3078,0.006969
2007.1714,0.006007
2009.0351,0.005576
2010.8988,0.005810
2012.7624,0.005768
2014.6261,0.003706
2016.4898,0.003746
2018.3534,0.003617
2020.2171,0.003499
2022.0808,0.003487
2023.9444,0.003521
2025.8081,0.003534
2027.6718,0.003742
2029.5355,0.003292
2031.3991,0.003844
2033.2628,0.002837
2035.1265,0.003982
2036.9901,0.006007
2038.8538,0.006363
2040.7175,0.005322
2042.5811,0.006016
2044.4448,0.006060
2046.3085,0.006904
2048.1721,0.008361
2050.0358,0.010198
2051.8995,0.011273
2053.7631,0.011620
2055.6268,0.011924
2057.4905,0.012641
2059.3542,0.013202
2061.2178,0.013637
2063.0815,0.013487
2064.9452,0.013563
2066.8088,0.013778
2068.6725,0.013911
2070.5362,0.014179
2072.3998,0.014588
2074.2635,0.015048
2076.1272,0.016091
2077.9908,0.016565
2079.8545,0.016452
2081.7182,0.016102
2083.5819,0.015781
2085.4455,0.016058
2087.3092,0.016462
2089.1729,0.016590
2091.0365,0.017104
2092.9002,0.017216
2094.7639,0.016762
2096.6275,0.016683
2098.4912,0.017206
2100.3549,0.017557
2102.2185,0.017390
2104.0822,0.016694
2105.9459,0.017052
2107.8095,0.017605
2109.6732,0.018003
2111.5369,0.017765
2113.4006,0.018054
2115.2642,0.018036
2117.1279,0.017663
2118.9916,0.017616
2120.8552,0.018060
2122.7189,0.017603
2124.5826,0.017044
2126.4462,0.017113
2128.3099,0.017148
2130.1736,0.016380
2132.0372,0.015795
2133.9009,0.015216
2135.7646,0.014575
2137.6282,0.013693
2139.4919,0.012673
2141.3556,0.011759
2143.2193,0.012430
2145.0829,0.012250
2146.9466,0.011269
2148.8103,0.009514
2150.6739,0.009011
2152.5376,0.008063
2154.4013,0.007673
2156.2649,0.005431
2158.1286,0.003555
2159.9923,0.003239
2161.8559,0.005834
2163.7196,0.006988
2165.5833,0.006717
2167.4470,0.007133
2169.3106,0.009023
2171.1743,0.008998
2173.0380,0.008003
2174.9016,0.009180
2176.7653,0.010028
2178.6290,0.009608
2180.4926,0.010301
2182.3563,0.009542
2184.2200,0.009027
2186.0836,0.009167
2187.9473,0.010710
2189.8110,0.012173
2191.6746,0.013226
2193.5383,0.013432
2195.4020,0.014083
2197.2657,0.013968
2199.1293,0.013790
2200.9930,0.013059
2202.8567,0.013164
2204.7203,0.013126
2206.5840,0.014209
2208.4477,0.015031
2210.3113,0.015666
2212.1750,0.015957
2214.0387,0.015798
2215.9023,0.015518
2217.7660,0.015688
2219.6297,0.015747
2221.4934,0.016351
2223.3570,0.015956
2225.2207,0.015993
2227.0844,0.016520
2228.9480,0.017613
2230.8117,0.018415
2232.6754,0.018300
2234.5390,0.017579
2236.4027,0.018379
2238.2664,0.019323
2240.1300,0.019460
2241.9937,0.019202
2243.8574,0.018700
2245.7210,0.018562
2247.5847,0.019455
2249.4484,0.019966
2251.3121,0.019846
2253.1757,0.019543
2255.0394,0.019549
2256.9031,0.020584
2258.7667,0.021076
2260.6304,0.020561
2262.4941,0.020484
2264.3577,0.020861
2266.2214,0.021520
2268.0851,0.021332
2269.9487,0.021695
2271.8124,0.022646
2273.6761,0.023043
2275.5397,0.023243
2277.4034,0.023774
2279.2671,0.023907
2281.1308,0.024249
2282.9944,0.024877
2284.8581,0.025221
2286.7218,0.025480
2288.5854,0.025895
2290.4491,0.025666
2292.3128,0.025247
2294.1764,0.025330
2296.0401,0.025628
2297.9038,0.025615
2299.7674,0.025569
2301.6311,0.025557
2303.4948,0.025624
2305.3585,0.025973
2307.2221,0.026111
2309.0858,0.025994
2310.9495,0.026126
2312.8131,0.026250
2314.6768,0.026181
2316.5405,0.026155
2318.4041,0.026152
2320.2678,0.026278
2322.1315,0.026470
2323.9951,0.026633
2325.8588,0.026610
2327.7225,0.026010
2329.5861,0.025597
2331.4498,0.025317
2333.3135,0.025164
2335.1772,0.025242
2337.0408,0.025469
2338.9045,0.025513
2340.7682,0.025453
2342.6318,0.025470
2344.4955,0.025627
2346.3592,0.025809
2348.2228,0.025521
2350.0865,0.025248
2351.9502,0.025022
2353.8138,0.024737
2355.6775,0.024656
2357.5412,0.024680
2359.4049,0.024769
2361.2685,0.024547
2363.1322,0.024876
2364.9959,0.025031
2366.8595,0.024882
2368.7232,0.025093
2370.5869,0.025333
2372.4505,0.025808
2374.3142,0.025957
2376.1779,0.026034
2378.0415,0.026222
2379.9052,0.026385
2381.7689,0.026416
2383.6325,0.026232
2385.4962,0.026015
2387.3599,0.026134
2389.2236,0.026416
2391.0872,0.026096
2392.9509,0.025982
2394.8146,0.026183
2396.6782,0.026257
2398.5419,0.026524
2400.4056,0.026770
2402.2692,0.026457
2404.1329,0.026248
2405.9966,0.026460
2407.8602,0.026495
2409.7239,0.026675
2411.5876,0.026760
2413.4512,0.026736
2415.3149,0.027013
2417.1786,0.027220
2419.0423,0.026993
2420.9059,0.026559
2422.7696,0.026686
2424.6333,0.027253
2426.4969,0.027288
2428.3606,0.027179
2430.2243,0.027192
2432.0879,0.027372
2433.9516,0.027501
2435.8153,0.027543
2437.6789,0.027374
2439.5426,0.027257
2441.4063,0.027221
2443.2700,0.027299
2445.1336,0.027420
2446.9973,0.027326
2448.8610,0.027444
2450.7246,0.027260
2452.5883,0.026907
2454.4520,0.027213
2456.3156,0.027674
2458.1793,0.027298
2460.0430,0.026954
2461.9066,0.027122
2463.7703,0.027292
2465.6340,0.027261
2467.4976,0.027060
2469.3613,0.027045
2471.2250,0.027080
2473.0887,0.026919
2474.9523,0.027104
2476.8160,0.027410
2478.6797,0.027367
2480.5433,0.027654
2482.4070,0.027586
2484.2707,0.027571
2486.1343,0.027751
2487.9980,0.027933
2489.8617,0.027685
2491.7253,0.027858
2493.5890,0.028322
2495.4527,0.027873
2497.3164,0.028003
2499.1800,0.028389
2501.0437,0.028617
2502.9074,0.028570
2504.7710,0.028287
2506.6347,0.028175
2508.4984,0.028676
2510.3620,0.028981
2512.2257,0.028606
2514.0894,0.028390
2515.9530,0.028726
2517.8167,0.029007
2519.6804,0.029221
2521.5440,0.029467
2523.4077,0.029518
2525.2714,0.029761
2527.1351,0.030033
