Wavenumber,Intensity
650.4205,0.194170
652.2841,0.194381
654.1478,0.194522
656.0115,0.190640
657.8751,0.187912
659.7388,0.188350
661.6025,0.190018
663.4661,0.190891
665.3298,0.191281
667.1935,0.192662
669.0571,0.195827
670.9208,0.191997
672.7845,0.188071
674.6481,0.184548
676.5118,0.181597
678.3755,0.179596
680.2392,0.178241
682.1028,0.177315
683.9665,0.176457
685.8302,0.174058
687.6938,0.173010
689.5575,0.172407
691.4212,0.171990
693.2848,0.171562
695.1485,0.170393
697.0122,0.168496
698.8758,0.169313
700.7395,0.171242
702.6032,0.171682
704.4669,0.169412
706.3305,0.166557
708.1942,0.161656
710.0579,0.154507
711.9215,0.147214
713.7852,0.141600
715.6489,0.136611
717.5125,0.131760
719.3762,0.127056
721.2399,0.123401
723.1035,0.120471
724.9672,0.117530
726.8309,0.114268
728.6945,0.111279
730.5582,0.108850
732.4219,0.106455
734.2856,0.103040
736.1492,0.099034
738.0129,0.095419
739.8766,0.093329
741.7402,0.092593
743.6039,0.092464
745.4676,0.091093
747.3312,0.088458
749.1949,0.086131
751.0586,0.084543
752.9222,0.083327
754.7859,0.082299
756.6496,0.081350
758.5132,0.080648
760.3769,0.080515
762.2406,0.080274
764.1043,0.079946
765.9679,0.079926
767.8316,0.079758
769.6953,0.079487
771.5589,0.079638
773.4226,0.080093
775.2863,0.080850
777.1499,0.082031
779.0136,0.083099
780.8773,0.084166
782.7409,0.085470
784.6046,0.086552
786.4683,0.088201
788.3320,0.090472
790.1956,0.091979
792.0593,0.093486
793.9230,0.095605
795.7866,0.097573
797.6503,0.099385
799.5140,0.101395
801.3776,0.102553
803.2413,0.102846
805.1050,0.102604
806.9686,0.101928
808.8323,0.100805
810.6960,0.099106
812.5596,0.096579
814.4233,0.093755
816.2870,0.091163
818.1507,0.088830
820.0143,0.086824
821.8780,0.085291
823.7417,0.084621
825.6053,0.085363
827.4690,0.087257
829.3327,0.088161
831.1963,0.083742
833.0600,0.073915
834.9237,0.065339
836.7873,0.061412
838.6510,0.060410
840.5147,0.060326
842.3784,0.060745
844.2420,0.061828
846.1057,0.062678
847.9694,0.062004
849.8330,0.059871
851.6967,0.058202
853.5604,0.057775
855.4240,0.057747
857.2877,0.057927
859.1514,0.058447
861.0150,0.058967
862.8787,0.059081
864.7424,0.059197
866.6060,0.059611
868.4697,0.060153
870.3334,0.060669
872.1971,0.061012
874.0607,0.061446
875.9244,0.062193
877.7881,0.063027
879.6517,0.064017
881.5154,0.065081
883.3791,0.066231
885.2427,0.067648
887.1064,0.069410
888.9701,0.071376
890.8337,0.073021
892.6974,0.073405
894.5611,0.072115
896.4247,0.070574
898.2884,0.070140
900.1521,0.071000
902.0158,0.073148
903.8794,0.076314
905.7431,0.080285
907.6068,0.085101
909.4704,0.090432
911.3341,0.096414
913.1978,0.103084
915.0614,0.106391
916.9251,0.099881
918.7888,0.086517
920.6524,0.076065
922.5161,0.071751
924.3798,0.070929
926.2435,0.071304
928.1071,0.072122
929.9708,0.073165
931.8345,0.074356
933.6981,0.075522
935.5618,0.076618
937.4255,0.077830
939.2891,0.079134
941.1528,0.080501
943.0165,0.081973
944.8801,0.083392
946.7438,0.084716
948.6075,0.086161
950.4711,0.087871
952.3348,0.089716
954.1985,0.091595
956.0622,0.093596
957.9258,0.095703
959.7895,0.097416
961.6532,0.098384
963.5168,0.098832
965.3805,0.099374
967.2442,0.100994
969.1078,0.103738
970.9715,0.106897
972.8352,0.110712
974.6988,0.116553
976.5625,0.125925
978.4262,0.141054
980.2899,0.161218
982.1535,0.169125
984.0172,0.147297
985.8809,0.118178
987.7445,0.105629
989.6082,0.104835
991.4719,0.106685
993.3355,0.108767
995.1992,0.110686
997.0629,0.112679
998.9265,0.114722
1000.7902,0.116668
1002.6539,0.118637
1004.5175,0.120605
1006.3812,0.122436
1008.2449,0.124123
1010.1086,0.125591
1011.9722,0.126751
1013.8359,0.127376
1015.6996,0.127630
1017.5632,0.127772
1019.4269,0.127530
1021.2906,0.126848
1023.1542,0.126050
1025.0179,0.125380
1026.8816,0.124968
1028.7452,0.124916
1030.6089,0.125105
1032.4726,0.125298
1034.3362,0.125185
1036.1999,0.124113
1038.0636,0.122032
1039.9273,0.120142
1041.7909,0.119721
1043.6546,0.120922
1045.5183,0.122505
1047.3819,0.122578
1049.2456,0.119460
1051.1093,0.112182
1052.9729,0.102524
1054.8366,0.094134
1056.7003,0.089017
1058.5639,0.086868
1060.4276,0.086368
1062.2913,0.086463
1064.1550,0.086872
1066.0186,0.087827
1067.8823,0.089261
1069.7460,0.090839
1071.6096,0.092533
1073.4733,0.094459
1075.3370,0.096456
1077.2006,0.098450
1079.0643,0.100543
1080.9280,0.102673
1082.7916,0.104963
1084.6553,0.107619
1086.5190,0.110590
1088.3826,0.113884
1090.2463,0.117760
1092.1100,0.122177
1093.9737,0.126978
1095.8373,0.132086
1097.7010,0.137317
1099.5647,0.142457
1101.4283,0.147232
1103.2920,0.151294
1105.1557,0.153881
1107.0193,0.153717
1108.8830,0.149304
1110.7467,0.140233
1112.6103,0.128138
1114.4740,0.115502
1116.3377,0.104259
1118.2014,0.095260
1120.0650,0.088639
1121.9287,0.084121
1123.7924,0.081145
1125.6560,0.079020
1127.5197,0.077171
1129.3834,0.075387
1131.2470,0.073666
1133.1107,0.072103
1134.9744,0.070833
1136.8380,0.070006
1138.7017,0.069687
1140.5654,0.069747
1142.4290,0.070047
1144.2927,0.070374
1146.1564,0.070646
1148.0201,0.071014
1149.8837,0.071484
1151.7474,0.071986
1153.6111,0.072570
1155.4747,0.073344
1157.3384,0.074358
1159.2021,0.075567
1161.0657,0.077021
1162.9294,0.078850
1164.7931,0.081088
1166.6567,0.083922
1168.5204,0.087325
1170.3841,0.090642
1172.2477,0.092798
1174.1114,0.092385
1175.9751,0.088957
1177.8388,0.084221
1179.7024,0.080274
1181.5661,0.077828
1183.4298,0.076625
1185.2934,0.076160
1187.1571,0.075866
1189.0208,0.075479
1190.8844,0.075014
1192.7481,0.074562
1194.6118,0.074242
1196.4754,0.074145
1198.3391,0.074246
1200.2028,0.074497
1202.0665,0.074863
1203.9301,0.075160
1205.7938,0.075327
1207.6575,0.075431
1209.5211,0.075411
1211.3848,0.075249
1213.2485,0.075029
1215.1121,0.074777
1216.9758,0.074372
1218.8395,0.073809
1220.7031,0.073220
1222.5668,0.072597
1224.4305,0.071941
1226.2941,0.071351
1228.1578,0.070838
1230.0215,0.070292
1231.8852,0.069743
1233.7488,0.069194
1235.6125,0.068663
1237.4762,0.068245
1239.3398,0.068040
1241.2035,0.068246
1243.0672,0.068844
1244.9308,0.069664
1246.7945,0.070575
1248.6582,0.071307
1250.5218,0.071631
1252.3855,0.071485
1254.2492,0.071154
1256.1129,0.071093
1257.9765,0.071435
1259.8402,0.072129
1261.7039,0.073061
1263.5675,0.073931
1265.4312,0.074669
1267.2949,0.075207
1269.1585,0.075340
1271.0222,0.075183
1272.8859,0.075103
1274.7495,0.075373
1276.6132,0.076022
1278.4769,0.076839
1280.3405,0.077894
1282.2042,0.079334
1284.0679,0.081032
1285.9316,0.083004
1287.7952,0.085487
1289.6589,0.088400
1291.5226,0.091756
1293.3862,0.095863
1295.2499,0.100854
1297.1136,0.106891
1298.9772,0.114007
1300.8409,0.122037
1302.7046,0.129565
1304.5682,0.133444
1306.4319,0.130253
1308.2956,0.117829
1310.1592,0.098189
1312.0229,0.078937
1313.8866,0.066535
1315.7503,0.061874
1317.6139,0.061785
1319.4776,0.063570
1321.3413,0.065727
1323.2049,0.067903
1325.0686,0.070339
1326.9323,0.072782
1328.7959,0.075036
1330.6596,0.077148
1332.5233,0.078925
1334.3869,0.080126
1336.2506,0.081132
1338.1143,0.082890
1339.9780,0.085341
1341.8416,0.086572
1343.7053,0.086717
1345.5690,0.086811
1347.4326,0.086942
1349.2963,0.087621
1351.1600,0.088804
1353.0236,0.090357
1354.8873,0.092381
1356.7510,0.094394
1358.6146,0.096071
1360.4783,0.098586
1362.3420,0.103046
1364.2056,0.106905
1366.0693,0.108827
1367.9330,0.111862
1369.7967,0.115370
1371.6603,0.118210
1373.5240,0.122663
1375.3877,0.127782
1377.2513,0.131020
1379.1150,0.135294
1380.9787,0.140960
1382.8423,0.146938
1384.7060,0.153702
1386.5697,0.162395
1388.4333,0.170710
1390.2970,0.173408
1392.1607,0.173909
1394.0244,0.173454
1395.8880,0.168546
1397.7517,0.160479
1399.6154,0.151487
1401.4790,0.143040
1403.3427,0.135749
1405.2064,0.125031
1407.0700,0.109836
1408.9337,0.094273
1410.7974,0.079857
1412.6610,0.069698
1414.5247,0.065132
1416.3884,0.065252
1418.2520,0.070485
1420.1157,0.079281
1421.9794,0.083329
1423.8431,0.081904
1425.7067,0.074409
1427.5704,0.065494
1429.4341,0.059396
1431.2977,0.056540
1433.1614,0.055955
1435.0251,0.057101
1436.8887,0.060578
1438.7524,0.062620
1440.6161,0.063244
1442.4797,0.064765
1444.3434,0.066183
1446.2071,0.067289
1448.0707,0.067955
1449.9344,0.066817
1451.7981,0.064464
1453.6618,0.062399
1455.5254,0.062617
1457.3891,0.066968
1459.2528,0.067483
1461.1164,0.065066
1462.9801,0.064538
1464.8438,0.065424
1466.7074,0.064781
1468.5711,0.062789
1470.4348,0.061943
1472.2984,0.063010
1474.1621,0.064184
1476.0258,0.063967
1477.8895,0.063829
1479.7531,0.063666
1481.6168,0.064181
1483.4805,0.064434
1485.3441,0.064647
1487.2078,0.065996
1489.0715,0.068727
1490.9351,0.070800
1492.7988,0.070389
1494.6625,0.070426
1496.5261,0.073183
1498.3898,0.075858
1500.2535,0.076278
1502.1171,0.075636
1503.9808,0.075388
1505.8445,0.078535
1507.7082,0.086303
1509.5718,0.085126
1511.4355,0.083604
1513.2992,0.083334
1515.1628,0.083576
1517.0265,0.084843
1518.8902,0.085506
1520.7538,0.086917
1522.6175,0.089726
1524.4812,0.089636
1526.3448,0.090589
1528.2085,0.091074
1530.0722,0.090446
1531.9359,0.091201
1533.7995,0.093913
1535.6632,0.093795
1537.5269,0.093031
1539.3905,0.097049
1541.2542,0.104186
1543.1179,0.104883
1544.9815,0.105996
1546.8452,0.106629
1548.7089,0.107763
1550.5725,0.110493
1552.4362,0.112221
1554.2999,0.113575
1556.1635,0.115954
1558.0272,0.122203
1559.8909,0.135650
1561.7546,0.131445
1563.6182,0.129771
1565.4819,0.132066
1567.3456,0.134762
1569.2092,0.139125
1571.0729,0.143836
1572.9366,0.144233
1574.8002,0.147406
1576.6639,0.155061
1578.5276,0.158039
1580.3912,0.158103
1582.2549,0.160226
1584.1186,0.162139
1585.9822,0.163413
1587.8459,0.163825
1589.7096,0.163760
1591.5733,0.162887
1593.4369,0.161764
1595.3006,0.160217
1597.1643,0.158244
1599.0279,0.155933
1600.8916,0.153968
1602.7553,0.152159
1604.6189,0.150165
1606.4826,0.148443
1608.3463,0.147311
1610.2099,0.145610
1612.0736,0.142724
1613.9373,0.139094
1615.8010,0.135196
1617.6646,0.128377
1619.5283,0.120839
1621.3920,0.115358
1623.2556,0.108822
1625.1193,0.101365
1626.9830,0.094927
1628.8466,0.087024
1630.7103,0.078808
1632.5740,0.072169
1634.4376,0.065667
1636.3013,0.058380
1638.1650,0.053897
1640.0286,0.052510
1641.8923,0.051604
1643.7560,0.052006
1645.6197,0.053698
1647.4833,0.056627
1649.3470,0.057738
1651.2107,0.059342
1653.0743,0.064712
1654.9380,0.069118
1656.8017,0.068177
1658.6653,0.068784
1660.5290,0.069657
1662.3927,0.070223
1664.2563,0.069311
1666.1200,0.067864
1667.9837,0.067015
1669.8474,0.066572
1671.7110,0.065650
1673.5747,0.065953
1675.4384,0.068340
1677.3020,0.070750
1679.1657,0.072348
1681.0294,0.075597
1682.8930,0.079547
1684.7567,0.085723
1686.6204,0.086917
1688.4840,0.085498
1690.3477,0.084022
1692.2114,0.081537
1694.0750,0.078802
1695.9387,0.075744
1697.8024,0.071572
1699.6661,0.068674
1701.5297,0.062346
1703.3934,0.056804
1705.2571,0.050819
1707.1207,0.042818
1708.9844,0.036909
1710.8481,0.032561
1712.7117,0.028899
1714.5754,0.026719
1716.4391,0.025014
1718.3027,0.023971
1720.1664,0.022827
1722.0301,0.022095
1723.8937,0.020699
1725.7574,0.018864
1727.6211,0.017147
1729.4848,0.015804
1731.3484,0.014528
1733.2121,0.013766
1735.0758,0.012553
1736.9394,0.012196
1738.8031,0.012110
1740.6668,0.011866
1742.5304,0.011424
1744.3941,0.011267
1746.2578,0.010879
1748.1214,0.010529
1749.9851,0.010334
1751.8488,0.010341
1753.7125,0.009885
1755.5761,0.009822
1757.4398,0.009705
1759.3035,0.009619
1761.1671,0.009698
1763.0308,0.009696
1764.8945,0.009480
1766.7581,0.009548
1768.6218,0.009587
1770.4855,0.009651
1772.3491,0.009501
1774.2128,0.009334
1776.0765,0.009072
1777.9401,0.009139
1779.8038,0.009267
1781.6675,0.009515
1783.5312,0.009412
1785.3948,0.009581
1787.2585,0.009543
1789.1222,0.009441
1790.9858,0.009433
1792.8495,0.009461
1794.7132,0.009275
1796.5768,0.009441
1798.4405,0.009430
1800.3042,0.009485
1802.1678,0.009599
1804.0315,0.009878
1805.8952,0.009937
1807.7589,0.009983
1809.6225,0.009980
1811.4862,0.010014
1813.3499,0.009937
1815.2135,0.009899
1817.0772,0.009704
1818.9409,0.009559
1820.8045,0.009628
1822.6682,0.009650
1824.5319,0.009368
1826.3955,0.009508
1828.2592,0.009591
1830.1229,0.009680
1831.9865,0.009409
1833.8502,0.009398
1835.7139,0.009520
1837.5776,0.009540
1839.4412,0.009385
1841.3049,0.009309
1843.1686,0.009308
1845.0322,0.009454
1846.8959,0.009386
1848.7596,0.009601
1850.6232,0.009659
1852.4869,0.009615
1854.3506,0.009458
1856.2142,0.009631
1858.0779,0.009491
1859.9416,0.009564
1861.8052,0.009784
1863.6689,0.009731
1865.5326,0.009199
1867.3963,0.009254
1869.2599,0.009424
1871.1236,0.009574
1872.9873,0.009600
1874.8509,0.009702
1876.7146,0.009618
1878.5783,0.009410
1880.4419,0.009442
1882.3056,0.009469
1884.1693,0.009385
1886.0329,0.009741
1887.8966,0.009535
1889.7603,0.008918
1891.6240,0.008722
1893.4876,0.009203
1895.3513,0.009255
1897.2150,0.009410
1899.0786,0.009295
1900.9423,0.009293
1902.8060,0.009466
1904.6696,0.009633
1906.5333,0.009713
1908.3970,0.009770
1910.2606,0.009382
1912.1243,0.009310
1913.9880,0.009450
1915.8516,0.009602
1917.7153,0.009233
1919.5790,0.008938
1921.4427,0.008636
1923.3063,0.008811
1925.1700,0.009032
1927.0337,0.009166
1928.8973,0.009191
1930.7610,0.009448
1932.6247,0.009188
1934.4883,0.008883
1936.3520,0.008286
1938.2157,0.008459
1940.0793,0.008750
1941.9430,0.008692
1943.8067,0.007331
1945.6704,0.007312
1947.5340,0.007904
1949.3977,0.008232
1951.2614,0.007513
1953.1250,0.007058
1954.9887,0.006595
1956.8524,0.006878
1958.7160,0.006468
1960.5797,0.005982
1962.4434,0.004983
1964.3070,0.004643
1966.1707,0.002662
1968.0344,0.001227
1969.8980,0.000980
1971.7617,0.001717
1973.6254,0.002052
1975.4891,0.002179
1977.3527,0.001600
1979.2164,0.003522
1981.0801,0.004715
1982.9437,0.005717
1984.8074,0.006040
1986.6711,0.006075
1988.5347,0.005375
1990.3984,0.005637
1992.2621,0.005767
1994.1257,0.005938
1995.9894,0.005189
1997.8531,0.006116
1999.7167,0.006375
2001.5804,0.005676
2003.4441,0.004565
2005.3078,0.003804
2007.1714,0.003675
2009.0351,0.004867
2010.8988,0.004262
2012.7624,0.003673
2014.6261,0.002636
2016.4898,0.002901
2018.3534,0.002573
2020.2171,0.002992
2022.0808,0.003218
2023.9444,0.002632
2025.8081,0.002352
2027.6718,0.002969
2029.5355,0.001951
2031.3991,0.001555
2033.2628,0.002949
2035.1265,0.004152
2036.9901,0.003999
2038.8538,0.004795
2040.7175,0.003785
2042.5811,0.003298
2044.4448,0.004930
2046.3085,0.006504
2048.1721,0.006776
2050.0358,0.006893
2051.8995,0.006512
2053.7631,0.006998
2055.6268,0.007919
2057.4905,0.008299
2059.3542,0.008261
2061.2178,0.009461
2063.0815,0.009542
2064.9452,0.009528
2066.8088,0.009808
2068.6725,0.009712
2070.5362,0.009468
2072.3998,0.009951
2074.2635,0.010024
2076.1272,0.009838
2077.9908,0.010381
2079.8545,0.011057
2081.7182,0.011299
2083.5819,0.011243
2085.4455,0.010853
2087.3092,0.011323
2089.1729,0.011144
2091.0365,0.011066
2092.9002,0.011671
2094.7639,0.012322
2096.6275,0.011926
2098.4912,0.011786
2100.3549,0.011229
2102.2185,0.011034
2104.0822,0.011454
2105.9459,0.011706
2107.8095,0.011763
2109.6732,0.012629
2111.5369,0.011960
2113.4006,0.011786
2115.2642,0.011746
2117.1279,0.011817
2118.9916,0.012014
2120.8552,0.012623
2122.7189,0.013008
2124.5826,0.012607
2126.4462,0.011771
2128.3099,0.011105
2130.1736,0.010307
2132.0372,0.009560
2133.9009,0.009355
2135.7646,0.009454
2137.6282,0.009388
2139.4919,0.009012
2141.3556,0.008530
2143.2193,0.009157
2145.0829,0.008897
2146.9466,0.009637
2148.8103,0.009398
2150.6739,0.007718
2152.5376,0.005884
2154.4013,0.006121
2156.2649,0.004581
2158.1286,0.003462
2159.9923,0.003142
2161.8559,0.004607
2163.7196,0.005068
2165.5833,0.005556
2167.4470,0.006217
2169.3106,0.007072
2171.1743,0.007073
2173.0380,0.007154
2174.9016,0.006086
2176.7653,0.006555
2178.6290,0.007465
2180.4926,0.008139
2182.3563,0.007418
2184.2200,0.007813
2186.0836,0.007448
2187.9473,0.007582
2189.8110,0.008000
2191.6746,0.008997
2193.5383,0.009193
2195.4020,0.009353
2197.2657,0.009454
2199.1293,0.009869
2200.9930,0.009551
2202.8567,0.010507
2204.7203,0.010020
2206.5840,0.010015
2208.4477,0.010877
2210.3113,0.011350
2212.1750,0.010929
2214.0387,0.010681
2215.9023,0.010634
2217.7660,0.011651
2219.6297,0.012442
2221.4934,0.011129
2223.3570,0.010624
2225.2207,0.012449
2227.0844,0.013472
2228.9480,0.013371
2230.8117,0.012719
2232.6754,0.012793
2234.5390,0.013553
2236.4027,0.014311
2238.2664,0.014017
2240.1300,0.014090
2241.9937,0.013784
2243.8574,0.013634
2245.7210,0.014121
2247.5847,0.015300
2249.4484,0.014705
2251.3121,0.014352
2253.1757,0.014702
2255.0394,0.014427
2256.9031,0.014356
2258.7667,0.015208
2260.6304,0.015795
2262.4941,0.015761
2264.3577,0.015855
2266.2214,0.015985
2268.0851,0.015951
2269.9487,0.016309
2271.8124,0.016947
2273.6761,0.017216
2275.5397,0.017543
2277.4034,0.017917
2279.2671,0.017929
2281.1308,0.018318
2282.9944,0.018290
2284.8581,0.018423
2286.7218,0.018549
2288.5854,0.018803
2290.4491,0.018767
2292.3128,0.018652
2294.1764,0.018634
2296.0401,0.018559
2297.9038,0.018514
2299.7674,0.019014
2301.6311,0.019426
2303.4948,0.019165
2305.3585,0.019099
2307.2221,0.019072
2309.0858,0.019310
2310.9495,0.019372
2312.8131,0.018960
2314.6768,0.019005
2316.5405,0.019403
2318.4041,0.019568
2320.2678,0.019438
2322.1315,0.019247
2323.9951,0.018923
2325.8588,0.018545
2327.7225,0.018067
2329.5861,0.018138
2331.4498,0.018352
2333.3135,0.018255
2335.1772,0.017901
2337.0408,0.018147
2338.9045,0.018657
2340.7682,0.018747
2342.6318,0.018460
2344.4955,0.018410
2346.3592,0.018335
2348.2228,0.018050
2350.0865,0.017814
2351.9502,0.017773
2353.8138,0.017665
2355.6775,0.017349
2357.5412,0.017489
2359.4049,0.017907
2361.2685,0.017510
2363.1322,0.017245
2364.9959,0.017528
2366.8595,0.017819
2368.7232,0.018219
2370.5869,0.018534
2372.4505,0.018434
2374.3142,0.018487
2376.1779,0.018809
2378.0415,0.018858
2379.9052,0.018966
2381.7689,0.018984
2383.6325,0.018903
2385.4962,0.019083
2387.3599,0.019152
2389.2236,0.019024
2391.0872,0.019080
2392.9509,0.019299
2394.8146,0.019312
2396.6782,0.019415
2398.5419,0.019593
2400.4056,0.019472
2402.2692,0.019415
2404.1329,0.019902
2405.9966,0.019749
2407.8602,0.019329
2409.7239,0.019375
2411.5876,0.019605
2413.4512,0.019616
2415.3149,0.019593
2417.1786,0.019581
2419.0423,0.019733
2420.9059,0.019855
2422.7696,0.020060
2424.6333,0.020076
2426.4969,0.020170
2428.3606,0.020287
2430.2243,0.020492
2432.0879,0.020493
2433.9516,0.020318
2435.8153,0.020330
2437.6789,0.020438
2439.5426,0.020674
2441.4063,0.020867
2443.2700,0.020545
2445.1336,0.020363
2446.9973,0.020227
2448.8610,0.020273
2450.7246,0.020445
2452.5883,0.020292
2454.4520,0.020242
2456.3156,0.020151
2458.1793,0.020021
2460.0430,0.020276
2461.9066,0.020325
2463.7703,0.020609
2465.6340,0.020733
2467.4976,0.020451
2469.3613,0.020141
2471.2250,0.020029
2473.0887,0.020086
2474.9523,0.020216
2476.8160,0.020371
2478.6797,0.020694
2480.5433,0.020915
2482.4070,0.021031
2484.2707,0.020656
2486.1343,0.020340
2487.9980,0.020561
2489.8617,0.020913
2491.7253,0.021259
2493.5890,0.021275
2495.4527,0.021147
2497.3164,0.021403
2499.1800,0.021602
2501.0437,0.021733
2502.9074,0.021721
2504.7710,0.021387
2506.6347,0.021438
2508.4984,0.021655
2510.3620,0.021831
2512.2257,0.022124
2514.0894,0.022192
2515.9530,0.021940
2517.8167,0.021907
2519.6804,0.022062
2521.5440,0.022175
2523.4077,0.022648
2525.2714,0.023031
2527.1351,0.022756
