Wavenumber,Intensity
650.4205,0.214095
652.2841,0.210916
654.1478,0.207915
656.0115,0.206155
657.8751,0.206826
659.7388,0.206970
661.6025,0.206939
663.4661,0.208603
665.3298,0.211161
667.1935,0.212440
669.0571,0.213199
670.9208,0.210730
672.7845,0.208245
674.6481,0.203901
676.5118,0.200333
678.3755,0.197963
680.2392,0.198355
682.1028,0.198490
683.9665,0.197829
685.8302,0.196864
687.6938,0.196648
689.5575,0.195033
691.4212,0.193215
693.2848,0.193036
695.1485,0.195022
697.0122,0.196233
698.8758,0.196280
700.7395,0.196496
702.6032,0.197321
704.4669,0.195892
706.3305,0.191579
708.1942,0.185258
710.0579,0.177920
711.9215,0.170282
713.7852,0.163308
715.6489,0.157695
717.5125,0.153844
719.3762,0.149881
721.2399,0.146714
723.1035,0.144023
724.9672,0.141511
726.8309,0.139460
728.6945,0.137429
730.5582,0.135253
732.4219,0.133582
734.2856,0.130476
736.1492,0.124870
738.0129,0.118291
739.8766,0.113268
741.7402,0.110766
743.6039,0.109385
745.4676,0.106382
747.3312,0.101566
749.1949,0.096280
751.0586,0.092659
752.9222,0.091410
754.7859,0.090443
756.6496,0.089301
758.5132,0.089003
760.3769,0.088979
762.2406,0.088650
764.1043,0.088264
765.9679,0.088207
767.8316,0.088362
769.6953,0.088323
771.5589,0.088247
773.4226,0.088815
775.2863,0.089785
777.1499,0.090652
779.0136,0.091620
780.8773,0.093050
782.7409,0.094516
784.6046,0.096022
786.4683,0.097773
788.3320,0.099910
790.1956,0.102066
792.0593,0.104151
793.9230,0.106595
795.7866,0.109325
797.6503,0.111568
799.5140,0.113380
801.3776,0.114671
803.2413,0.115250
805.1050,0.115315
806.9686,0.114760
808.8323,0.113190
810.6960,0.110976
812.5596,0.108633
814.4233,0.106016
816.2870,0.102904
818.1507,0.100096
820.0143,0.097822
821.8780,0.096179
823.7417,0.095421
825.6053,0.096017
827.4690,0.098188
829.3327,0.099947
831.1963,0.095891
833.0600,0.085481
834.9237,0.076019
836.7873,0.071444
838.6510,0.070167
840.5147,0.070310
842.3784,0.071439
844.2420,0.073528
846.1057,0.075740
847.9694,0.075014
849.8330,0.070832
851.6967,0.067245
853.5604,0.066003
855.4240,0.065759
857.2877,0.065981
859.1514,0.066603
861.0150,0.067153
862.8787,0.067444
864.7424,0.067734
866.6060,0.068185
868.4697,0.068811
870.3334,0.069448
872.1971,0.070103
874.0607,0.070950
875.9244,0.071943
877.7881,0.073210
879.6517,0.074657
881.5154,0.076261
883.3791,0.078242
885.2427,0.080521
887.1064,0.083270
888.9701,0.086565
890.8337,0.089186
892.6974,0.089289
894.5611,0.086013
896.4247,0.081485
898.2884,0.079118
900.1521,0.079739
902.0158,0.082087
903.8794,0.085463
905.7431,0.089916
907.6068,0.095303
909.4704,0.101151
911.3341,0.107815
913.1978,0.115834
915.0614,0.120709
916.9251,0.114475
918.7888,0.099857
920.6524,0.088059
922.5161,0.083204
924.3798,0.082392
926.2435,0.082874
928.1071,0.083713
929.9708,0.084909
931.8345,0.086317
933.6981,0.087750
935.5618,0.089203
937.4255,0.090774
939.2891,0.092421
941.1528,0.094018
943.0165,0.095862
944.8801,0.097805
946.7438,0.099571
948.6075,0.101645
950.4711,0.104237
952.3348,0.106993
954.1985,0.109804
956.0622,0.112767
957.9258,0.115646
959.7895,0.117543
961.6532,0.117937
963.5168,0.117235
965.3805,0.116632
967.2442,0.117396
969.1078,0.119759
970.9715,0.123225
972.8352,0.127822
974.6988,0.134777
976.5625,0.146066
978.4262,0.164156
980.2899,0.187774
982.1535,0.196856
984.0172,0.171647
985.8809,0.138504
987.7445,0.124431
989.6082,0.123825
991.4719,0.126241
993.3355,0.129056
995.1992,0.131816
997.0629,0.134470
998.9265,0.137074
1000.7902,0.139728
1002.6539,0.142312
1004.5175,0.144855
1006.3812,0.147472
1008.2449,0.149766
1010.1086,0.151827
1011.9722,0.153670
1013.8359,0.155027
1015.6996,0.155963
1017.5632,0.156537
1019.4269,0.156517
1021.2906,0.156036
1023.1542,0.155629
1025.0179,0.155398
1026.8816,0.155373
1028.7452,0.155690
1030.6089,0.156231
1032.4726,0.156698
1034.3362,0.156424
1036.1999,0.154202
1038.0636,0.150042
1039.9273,0.146049
1041.7909,0.144535
1043.6546,0.145893
1045.5183,0.147743
1047.3819,0.146968
1049.2456,0.142094
1051.1093,0.132874
1052.9729,0.121248
1054.8366,0.111201
1056.7003,0.105314
1058.5639,0.103083
1060.4276,0.102761
1062.2913,0.103143
1064.1550,0.103846
1066.0186,0.104903
1067.8823,0.106517
1069.7460,0.108674
1071.6096,0.111095
1073.4733,0.113639
1075.3370,0.116143
1077.2006,0.118565
1079.0643,0.121155
1080.9280,0.123887
1082.7916,0.126793
1084.6553,0.130126
1086.5190,0.133779
1088.3826,0.137848
1090.2463,0.142555
1092.1100,0.147799
1093.9737,0.153591
1095.8373,0.159859
1097.7010,0.166185
1099.5647,0.172237
1101.4283,0.177715
1103.2920,0.182212
1105.1557,0.185197
1107.0193,0.185184
1108.8830,0.180304
1110.7467,0.170035
1112.6103,0.155957
1114.4740,0.140829
1116.3377,0.127050
1118.2014,0.115819
1120.0650,0.107533
1121.9287,0.102101
1123.7924,0.098685
1125.6560,0.096245
1127.5197,0.094217
1129.3834,0.092377
1131.2470,0.090643
1133.1107,0.089116
1134.9744,0.088054
1136.8380,0.087582
1138.7017,0.087548
1140.5654,0.087832
1142.4290,0.088459
1144.2927,0.089247
1146.1564,0.089945
1148.0201,0.090730
1149.8837,0.091584
1151.7474,0.092359
1153.6111,0.093271
1155.4747,0.094451
1157.3384,0.095860
1159.2021,0.097459
1161.0657,0.099257
1162.9294,0.101489
1164.7931,0.104305
1166.6567,0.107691
1168.5204,0.111598
1170.3841,0.115535
1172.2477,0.118150
1174.1114,0.117603
1175.9751,0.113559
1177.8388,0.108025
1179.7024,0.103347
1181.5661,0.100547
1183.4298,0.099178
1185.2934,0.098441
1187.1571,0.097878
1189.0208,0.097271
1190.8844,0.096616
1192.7481,0.095923
1194.6118,0.095469
1196.4754,0.095403
1198.3391,0.095540
1200.2028,0.095763
1202.0665,0.096058
1203.9301,0.096163
1205.7938,0.095832
1207.6575,0.095303
1209.5211,0.094646
1211.3848,0.093841
1213.2485,0.092986
1215.1121,0.091993
1216.9758,0.090895
1218.8395,0.089729
1220.7031,0.088422
1222.5668,0.087149
1224.4305,0.086039
1226.2941,0.084950
1228.1578,0.083808
1230.0215,0.082673
1231.8852,0.081423
1233.7488,0.080047
1235.6125,0.078752
1237.4762,0.077641
1239.3398,0.076951
1241.2035,0.076971
1243.0672,0.077830
1244.9308,0.079210
1246.7945,0.080445
1248.6582,0.081209
1250.5218,0.081323
1252.3855,0.080568
1254.2492,0.079426
1256.1129,0.078734
1257.9765,0.078773
1259.8402,0.079378
1261.7039,0.080258
1263.5675,0.081185
1265.4312,0.082075
1267.2949,0.082711
1269.1585,0.082883
1271.0222,0.082608
1272.8859,0.082391
1274.7495,0.082632
1276.6132,0.083188
1278.4769,0.084002
1280.3405,0.085187
1282.2042,0.086663
1284.0679,0.088497
1285.9316,0.090838
1287.7952,0.093684
1289.6589,0.096989
1291.5226,0.101003
1293.3862,0.105994
1295.2499,0.112098
1297.1136,0.119593
1298.9772,0.128606
1300.8409,0.138884
1302.7046,0.148414
1304.5682,0.152996
1306.4319,0.148897
1308.2956,0.134132
1310.1592,0.111139
1312.0229,0.088671
1313.8866,0.074203
1315.7503,0.068829
1317.6139,0.068714
1319.4776,0.070590
1321.3413,0.073089
1323.2049,0.075711
1325.0686,0.078334
1326.9323,0.081018
1328.7959,0.083741
1330.6596,0.086207
1332.5233,0.088157
1334.3869,0.089512
1336.2506,0.090737
1338.1143,0.092885
1339.9780,0.096066
1341.8416,0.098180
1343.7053,0.098742
1345.5690,0.098399
1347.4326,0.097510
1349.2963,0.097483
1351.1600,0.098564
1353.0236,0.100238
1354.8873,0.102404
1356.7510,0.104610
1358.6146,0.106539
1360.4783,0.109220
1362.3420,0.113785
1364.2056,0.118173
1366.0693,0.120625
1367.9330,0.123932
1369.7967,0.127968
1371.6603,0.131406
1373.5240,0.136183
1375.3877,0.141890
1377.2513,0.145981
1379.1150,0.151085
1380.9787,0.158062
1382.8423,0.166002
1384.7060,0.175058
1386.5697,0.186026
1388.4333,0.195870
1390.2970,0.198820
1392.1607,0.199096
1394.0244,0.197969
1395.8880,0.192056
1397.7517,0.182936
1399.6154,0.172547
1401.4790,0.163178
1403.3427,0.154350
1405.2064,0.140666
1407.0700,0.122776
1408.9337,0.105095
1410.7974,0.088902
1412.6610,0.077911
1414.5247,0.073374
1416.3884,0.073891
1418.2520,0.079937
1420.1157,0.090516
1421.9794,0.095808
1423.8431,0.094194
1425.7067,0.085480
1427.5704,0.075125
1429.4341,0.067880
1431.2977,0.064460
1433.1614,0.063784
1435.0251,0.064857
1436.8887,0.068158
1438.7524,0.070607
1440.6161,0.071716
1442.4797,0.073454
1444.3434,0.075032
1446.2071,0.076328
1448.0707,0.077106
1449.9344,0.076095
1451.7981,0.073835
1453.6618,0.071600
1455.5254,0.071678
1457.3891,0.076195
1459.2528,0.076752
1461.1164,0.073500
1462.9801,0.071993
1464.8438,0.072358
1466.7074,0.072015
1468.5711,0.070260
1470.4348,0.069163
1472.2984,0.069724
1474.1621,0.071078
1476.0258,0.071307
1477.8895,0.071381
1479.7531,0.071509
1481.6168,0.072438
1483.4805,0.073014
1485.3441,0.073287
1487.2078,0.074548
1489.0715,0.077506
1490.9351,0.080301
1492.7988,0.080587
1494.6625,0.080897
1496.5261,0.083974
1498.3898,0.087535
1500.2535,0.088776
1502.1171,0.088458
1503.9808,0.087920
1505.8445,0.090106
1507.7082,0.098033
1509.5718,0.098230
1511.4355,0.096861
1513.2992,0.096305
1515.1628,0.095999
1517.0265,0.096145
1518.8902,0.096167
1520.7538,0.097230
1522.6175,0.100050
1524.4812,0.100420
1526.3448,0.100997
1528.2085,0.101265
1530.0722,0.100742
1531.9359,0.101165
1533.7995,0.103393
1535.6632,0.103655
1537.5269,0.103177
1539.3905,0.106059
1541.2542,0.112710
1543.1179,0.114669
1544.9815,0.116536
1546.8452,0.118124
1548.7089,0.119839
1550.5725,0.122775
1552.4362,0.125174
1554.2999,0.126893
1556.1635,0.129187
1558.0272,0.133986
1559.8909,0.147286
1561.7546,0.147105
1563.6182,0.146608
1565.4819,0.149242
1567.3456,0.152647
1569.2092,0.157417
1571.0729,0.163056
1572.9366,0.164615
1574.8002,0.167884
1576.6639,0.175713
1578.5276,0.180651
1580.3912,0.181831
1582.2549,0.184219
1584.1186,0.186316
1585.9822,0.187938
1587.8459,0.188527
1589.7096,0.188270
1591.5733,0.187405
1593.4369,0.186371
1595.3006,0.184821
1597.1643,0.183147
1599.0279,0.181174
1600.8916,0.179178
1602.7553,0.177330
1604.6189,0.176019
1606.4826,0.175014
1608.3463,0.174009
1610.2099,0.172592
1612.0736,0.170183
1613.9373,0.165943
1615.8010,0.159596
1617.6646,0.150066
1619.5283,0.142229
1621.3920,0.135438
1623.2556,0.126217
1625.1193,0.116920
1626.9830,0.109387
1628.8466,0.099864
1630.7103,0.090472
1632.5740,0.082828
1634.4376,0.074772
1636.3013,0.065383
1638.1650,0.060898
1640.0286,0.060253
1641.8923,0.059436
1643.7560,0.059659
1645.6197,0.061055
1647.4833,0.063965
1649.3470,0.065790
1651.2107,0.067474
1653.0743,0.071558
1654.9380,0.076935
1656.8017,0.077618
1658.6653,0.078668
1660.5290,0.079359
1662.3927,0.079401
1664.2563,0.078562
1666.1200,0.077388
1667.9837,0.075990
1669.8474,0.074563
1671.7110,0.074111
1673.5747,0.074947
1675.4384,0.077207
1677.3020,0.080599
1679.1657,0.083288
1681.0294,0.086842
1682.8930,0.090591
1684.7567,0.096666
1686.6204,0.099637
1688.4840,0.098954
1690.3477,0.097210
1692.2114,0.094403
1694.0750,0.090854
1695.9387,0.086258
1697.8024,0.081528
1699.6661,0.078139
1701.5297,0.070829
1703.3934,0.065518
1705.2571,0.058053
1707.1207,0.048632
1708.9844,0.042494
1710.8481,0.037969
1712.7117,0.034096
1714.5754,0.031492
1716.4391,0.029015
1718.3027,0.027486
1720.1664,0.026560
1722.0301,0.025969
1723.8937,0.024347
1725.7574,0.022451
1727.6211,0.020618
1729.4848,0.018987
1731.3484,0.017307
1733.2121,0.016294
1735.0758,0.014959
1736.9394,0.014563
1738.8031,0.014466
1740.6668,0.014222
1742.5304,0.013870
1744.3941,0.013627
1746.2578,0.012971
1748.1214,0.012681
1749.9851,0.012299
1751.8488,0.012205
1753.7125,0.011956
1755.5761,0.011946
1757.4398,0.011792
1759.3035,0.011643
1761.1671,0.011563
1763.0308,0.011827
1764.8945,0.011698
1766.7581,0.011638
1768.6218,0.011382
1770.4855,0.011230
1772.3491,0.011065
1774.2128,0.011154
1776.0765,0.011157
1777.9401,0.011273
1779.8038,0.011246
1781.6675,0.011461
1783.5312,0.011559
1785.3948,0.011622
1787.2585,0.011499
1789.1222,0.011437
1790.9858,0.011268
1792.8495,0.011328
1794.7132,0.011230
1796.5768,0.011380
1798.4405,0.011371
1800.3042,0.011561
1802.1678,0.011540
1804.0315,0.011717
1805.8952,0.011839
1807.7589,0.011913
1809.6225,0.011821
1811.4862,0.011919
1813.3499,0.011742
1815.2135,0.011670
1817.0772,0.011569
1818.9409,0.011711
1820.8045,0.011775
1822.6682,0.011732
1824.5319,0.011580
1826.3955,0.011711
1828.2592,0.011316
1830.1229,0.011244
1831.9865,0.011342
1833.8502,0.011381
1835.7139,0.011327
1837.5776,0.011426
1839.4412,0.011272
1841.3049,0.011232
1843.1686,0.011066
1845.0322,0.011101
1846.8959,0.011256
1848.7596,0.011700
1850.6232,0.011503
1852.4869,0.011204
1854.3506,0.011170
1856.2142,0.011547
1858.0779,0.011730
1859.9416,0.011678
1861.8052,0.011556
1863.6689,0.011701
1865.5326,0.011493
1867.3963,0.011364
1869.2599,0.011097
1871.1236,0.011055
1872.9873,0.011200
1874.8509,0.011646
1876.7146,0.011636
1878.5783,0.011627
1880.4419,0.011110
1882.3056,0.011186
1884.1693,0.011475
1886.0329,0.011868
1887.8966,0.011625
1889.7603,0.011543
1891.6240,0.011589
1893.4876,0.011650
1895.3513,0.011351
1897.2150,0.011392
1899.0786,0.011719
1900.9423,0.011881
1902.8060,0.011685
1904.6696,0.011487
1906.5333,0.011284
1908.3970,0.011698
1910.2606,0.011623
1912.1243,0.011470
1913.9880,0.011498
1915.8516,0.011937
1917.7153,0.011893
1919.5790,0.011609
1921.4427,0.011422
1923.3063,0.011399
1925.1700,0.011322
1927.0337,0.011531
1928.8973,0.011134
1930.7610,0.010723
1932.6247,0.010477
1934.4883,0.010847
1936.3520,0.010442
1938.2157,0.010068
1940.0793,0.009889
1941.9430,0.009998
1943.8067,0.009505
1945.6704,0.009465
1947.5340,0.009288
1949.3977,0.008957
1951.2614,0.008826
1953.1250,0.009389
1954.9887,0.008697
1956.8524,0.008438
1958.7160,0.007961
1960.5797,0.007720
1962.4434,0.006648
1964.3070,0.005109
1966.1707,0.004169
1968.0344,0.004907
1969.8980,0.004139
1971.7617,0.003262
1973.6254,0.002937
1975.4891,0.003618
1977.3527,0.003663
1979.2164,0.005466
1981.0801,0.006229
1982.9437,0.006790
1984.8074,0.006671
1986.6711,0.006340
1988.5347,0.006051
1990.3984,0.006498
1992.2621,0.006643
1994.1257,0.006404
1995.9894,0.007085
1997.8531,0.008755
1999.7167,0.008444
2001.5804,0.007987
2003.4441,0.006883
2005.3078,0.005468
2007.1714,0.005043
2009.0351,0.006302
2010.8988,0.005953
2012.7624,0.005800
2014.6261,0.004865
2016.4898,0.003817
2018.3534,0.003327
2020.2171,0.003846
2022.0808,0.002648
2023.9444,0.003162
2025.8081,0.003929
2027.6718,0.004558
2029.5355,0.002416
2031.3991,0.001886
2033.2628,0.002981
2035.1265,0.004850
2036.9901,0.005144
2038.8538,0.005189
2040.7175,0.005216
2042.5811,0.006215
2044.4448,0.006074
2046.3085,0.006572
2048.1721,0.007512
2050.0358,0.008290
2051.8995,0.008492
2053.7631,0.009101
2055.6268,0.009694
2057.4905,0.009930
2059.3542,0.010285
2061.2178,0.011480
2063.0815,0.010905
2064.9452,0.009940
2066.8088,0.009520
2068.6725,0.010685
2070.5362,0.011778
2072.3998,0.012428
2074.2635,0.012256
2076.1272,0.011832
2077.9908,0.011271
2079.8545,0.011981
2081.7182,0.012238
2083.5819,0.012138
2085.4455,0.012437
2087.3092,0.013172
2089.1729,0.013358
2091.0365,0.013649
2092.9002,0.013350
2094.7639,0.013426
2096.6275,0.013764
2098.4912,0.013831
2100.3549,0.012878
2102.2185,0.012851
2104.0822,0.012976
2105.9459,0.013108
2107.8095,0.013100
2109.6732,0.013294
2111.5369,0.013991
2113.4006,0.014866
2115.2642,0.014744
2117.1279,0.014234
2118.9916,0.013800
2120.8552,0.013597
2122.7189,0.013795
2124.5826,0.014208
2126.4462,0.013678
2128.3099,0.013551
2130.1736,0.012556
2132.0372,0.012519
2133.9009,0.012936
2135.7646,0.012910
2137.6282,0.011994
2139.4919,0.012184
2141.3556,0.011921
2143.2193,0.011047
2145.0829,0.010533
2146.9466,0.010996
2148.8103,0.009482
2150.6739,0.007323
2152.5376,0.006041
2154.4013,0.005961
2156.2649,0.004559
2158.1286,0.003184
2159.9923,0.003046
2161.8559,0.005603
2163.7196,0.007187
2165.5833,0.007637
2167.4470,0.006481
2169.3106,0.006468
2171.1743,0.007209
2173.0380,0.008068
2174.9016,0.007550
2176.7653,0.008307
2178.6290,0.009530
2180.4926,0.010313
2182.3563,0.010314
2184.2200,0.009670
2186.0836,0.009215
2187.9473,0.009597
2189.8110,0.009397
2191.6746,0.009372
2193.5383,0.009859
2195.4020,0.010737
2197.2657,0.011555
2199.1293,0.013006
2200.9930,0.012141
2202.8567,0.011385
2204.7203,0.011210
2206.5840,0.011487
2208.4477,0.011989
2210.3113,0.012772
2212.1750,0.012886
2214.0387,0.013597
2215.9023,0.013627
2217.7660,0.014448
2219.6297,0.014129
2221.4934,0.014403
2223.3570,0.014528
2225.2207,0.014269
2227.0844,0.013885
2228.9480,0.014170
2230.8117,0.014214
2232.6754,0.014225
2234.5390,0.014808
2236.4027,0.015413
2238.2664,0.015784
2240.1300,0.015908
2241.9937,0.015948
2243.8574,0.016140
2245.7210,0.015830
2247.5847,0.016146
2249.4484,0.016255
2251.3121,0.015857
2253.1757,0.015859
2255.0394,0.017121
2256.9031,0.017984
2258.7667,0.017920
2260.6304,0.018171
2262.4941,0.018243
2264.3577,0.018203
2266.2214,0.018295
2268.0851,0.018058
2269.9487,0.018317
2271.8124,0.018983
2273.6761,0.019050
2275.5397,0.019109
2277.4034,0.019404
2279.2671,0.020002
2281.1308,0.020946
2282.9944,0.020866
2284.8581,0.020703
2286.7218,0.020807
2288.5854,0.021034
2290.4491,0.020925
2292.3128,0.021149
2294.1764,0.021291
2296.0401,0.021313
2297.9038,0.021446
2299.7674,0.021578
2301.6311,0.021246
2303.4948,0.021418
2305.3585,0.021812
2307.2221,0.021984
2309.0858,0.022063
2310.9495,0.021945
2312.8131,0.021723
2314.6768,0.021624
2316.5405,0.021808
2318.4041,0.022130
2320.2678,0.022089
2322.1315,0.021813
2323.9951,0.021800
2325.8588,0.021729
2327.7225,0.021292
2329.5861,0.020975
2331.4498,0.020956
2333.3135,0.020556
2335.1772,0.020193
2337.0408,0.020394
2338.9045,0.020592
2340.7682,0.020543
2342.6318,0.020708
2344.4955,0.021009
2346.3592,0.021048
2348.2228,0.020905
2350.0865,0.020478
2351.9502,0.020433
2353.8138,0.020548
2355.6775,0.020580
2357.5412,0.020419
2359.4049,0.020342
2361.2685,0.020282
2363.1322,0.020241
2364.9959,0.020476
2366.8595,0.020740
2368.7232,0.020512
2370.5869,0.020820
2372.4505,0.021200
2374.3142,0.021519
2376.1779,0.021441
2378.0415,0.021274
2379.9052,0.021234
2381.7689,0.021515
2383.6325,0.021742
2385.4962,0.021792
2387.3599,0.021721
2389.2236,0.021748
2391.0872,0.021872
2392.9509,0.021852
2394.8146,0.021847
2396.6782,0.021917
2398.5419,0.022055
2400.4056,0.022170
2402.2692,0.022047
2404.1329,0.022196
2405.9966,0.022272
2407.8602,0.022445
2409.7239,0.022596
2411.5876,0.022544
2413.4512,0.022554
2415.3149,0.022508
2417.1786,0.022446
2419.0423,0.022443
2420.9059,0.022516
2422.7696,0.022695
2424.6333,0.023045
2426.4969,0.023147
2428.3606,0.023029
2430.2243,0.023055
2432.0879,0.023096
2433.9516,0.023177
2435.8153,0.023295
2437.6789,0.023218
2439.5426,0.023073
2441.4063,0.023093
2443.2700,0.023207
2445.1336,0.023258
2446.9973,0.023317
2448.8610,0.023627
2450.7246,0.023588
2452.5883,0.023643
2454.4520,0.023467
2456.3156,0.023228
2458.1793,0.023357
2460.0430,0.023439
2461.9066,0.023153
2463.7703,0.023235
2465.6340,0.023636
2467.4976,0.023707
2469.3613,0.023403
2471.2250,0.023290
2473.0887,0.023543
2474.9523,0.023868
2476.8160,0.023614
2478.6797,0.023426
2480.5433,0.023576
2482.4070,0.023821
2484.2707,0.023799
2486.1343,0.023862
2487.9980,0.024025
2489.8617,0.023930
2491.7253,0.023952
2493.5890,0.024142
2495.4527,0.024375
2497.3164,0.024644
2499.1800,0.024570
2501.0437,0.024604
2502.9074,0.024814
2504.7710,0.024818
2506.6347,0.025016
2508.4984,0.025109
2510.3620,0.024945
2512.2257,0.024869
2514.0894,0.024865
2515.9530,0.025214
2517.8167,0.025465
2519.6804,0.025375
2521.5440,0.025445
2523.4077,0.025731
2525.2714,0.025758
2527.1351,0.025503
