Wavenumber,Intensity
650.4205,0.214021
652.2841,0.221842
654.1478,0.233292
656.0115,0.243586
657.8751,0.255117
659.7388,0.265805
661.6025,0.279686
663.4661,0.295076
665.3298,0.309519
667.1935,0.318948
669.0571,0.312996
670.9208,0.291757
672.7845,0.272637
674.6481,0.253867
676.5118,0.241200
678.3755,0.234614
680.2392,0.230186
682.1028,0.223152
683.9665,0.213023
685.8302,0.198923
687.6938,0.187751
689.5575,0.179536
691.4212,0.170951
693.2848,0.162670
695.1485,0.155423
697.0122,0.150271
698.8758,0.148415
700.7395,0.147777
702.6032,0.147791
704.4669,0.147023
706.3305,0.144452
708.1942,0.139255
710.0579,0.133476
711.9215,0.128258
713.7852,0.123231
715.6489,0.118815
717.5125,0.115336
719.3762,0.113277
721.2399,0.112244
723.1035,0.111639
724.9672,0.111871
726.8309,0.113554
728.6945,0.116119
730.5582,0.119919
732.4219,0.126306
734.2856,0.137312
736.1492,0.156711
738.0129,0.184848
739.8766,0.212441
741.7402,0.229416
743.6039,0.218301
745.4676,0.168649
747.3312,0.125311
749.1949,0.110071
751.0586,0.104288
752.9222,0.102572
754.7859,0.097613
756.6496,0.085859
758.5132,0.078837
760.3769,0.078938
762.2406,0.081880
764.1043,0.086259
765.9679,0.091317
767.8316,0.092185
769.6953,0.088800
771.5589,0.086815
773.4226,0.088036
775.2863,0.090878
777.1499,0.094390
779.0136,0.096844
780.8773,0.097894
782.7409,0.098312
784.6046,0.099198
786.4683,0.101182
788.3320,0.103547
790.1956,0.105508
792.0593,0.107635
793.9230,0.110160
795.7866,0.113399
797.6503,0.117439
799.5140,0.122086
801.3776,0.126220
803.2413,0.127617
805.1050,0.125111
806.9686,0.122065
808.8323,0.120841
810.6960,0.120308
812.5596,0.119450
814.4233,0.118687
816.2870,0.118222
818.1507,0.117851
820.0143,0.117755
821.8780,0.118139
823.7417,0.119018
825.6053,0.121417
827.4690,0.125017
829.3327,0.128448
831.1963,0.127696
833.0600,0.122548
834.9237,0.118237
836.7873,0.117315
838.6510,0.117762
840.5147,0.118056
842.3784,0.119647
844.2420,0.124450
846.1057,0.131642
847.9694,0.137647
849.8330,0.138066
851.6967,0.134178
853.5604,0.134442
855.4240,0.139951
857.2877,0.143141
859.1514,0.142396
861.0150,0.142269
862.8787,0.145273
864.7424,0.147699
866.6060,0.145447
868.4697,0.140885
870.3334,0.139080
872.1971,0.141031
874.0607,0.144576
875.9244,0.146848
877.7881,0.146466
879.6517,0.145626
881.5154,0.146753
883.3791,0.148557
885.2427,0.150032
887.1064,0.151417
888.9701,0.153252
890.8337,0.155377
892.6974,0.158048
894.5611,0.160647
896.4247,0.163063
898.2884,0.165693
900.1521,0.168651
902.0158,0.172326
903.8794,0.176465
905.7431,0.180902
907.6068,0.186510
909.4704,0.192972
911.3341,0.200724
913.1978,0.210206
915.0614,0.218324
916.9251,0.217745
918.7888,0.209354
920.6524,0.200306
922.5161,0.194521
924.3798,0.191910
926.2435,0.191712
928.1071,0.192766
929.9708,0.193499
931.8345,0.193795
933.6981,0.195235
935.5618,0.197735
937.4255,0.200555
939.2891,0.203326
941.1528,0.206174
943.0165,0.208889
944.8801,0.211610
946.7438,0.214496
948.6075,0.217694
950.4711,0.220727
952.3348,0.223789
954.1985,0.226888
956.0622,0.230386
957.9258,0.234162
959.7895,0.238107
961.6532,0.242051
963.5168,0.245689
965.3805,0.248665
967.2442,0.252243
969.1078,0.257074
970.9715,0.262662
972.8352,0.268874
974.6988,0.277010
976.5625,0.288617
978.4262,0.304722
980.2899,0.322997
982.1535,0.328584
984.0172,0.309237
985.8809,0.286883
987.7445,0.278208
989.6082,0.277317
991.4719,0.278274
993.3355,0.280874
995.1992,0.284620
997.0629,0.288583
998.9265,0.292624
1000.7902,0.297060
1002.6539,0.301908
1004.5175,0.307354
1006.3812,0.310461
1008.2449,0.308218
1010.1086,0.302684
1011.9722,0.297465
1013.8359,0.292604
1015.6996,0.286955
1017.5632,0.279358
1019.4269,0.269916
1021.2906,0.259029
1023.1542,0.247255
1025.0179,0.235446
1026.8816,0.224538
1028.7452,0.214573
1030.6089,0.205337
1032.4726,0.196866
1034.3362,0.189554
1036.1999,0.183028
1038.0636,0.177095
1039.9273,0.171711
1041.7909,0.166913
1043.6546,0.162525
1045.5183,0.158462
1047.3819,0.154319
1049.2456,0.149201
1051.1093,0.142408
1052.9729,0.134635
1054.8366,0.127619
1056.7003,0.123001
1058.5639,0.120721
1060.4276,0.119514
1062.2913,0.118180
1064.1550,0.117218
1066.0186,0.116898
1067.8823,0.116185
1069.7460,0.115659
1071.6096,0.116809
1073.4733,0.119469
1075.3370,0.121950
1077.2006,0.121685
1079.0643,0.118906
1080.9280,0.116823
1082.7916,0.116726
1084.6553,0.118095
1086.5190,0.120351
1088.3826,0.123030
1090.2463,0.126226
1092.1100,0.130177
1093.9737,0.134706
1095.8373,0.139056
1097.7010,0.142196
1099.5647,0.143354
1101.4283,0.143093
1103.2920,0.141603
1105.1557,0.138729
1107.0193,0.135297
1108.8830,0.131423
1110.7467,0.126462
1112.6103,0.120658
1114.4740,0.114288
1116.3377,0.107136
1118.2014,0.099916
1120.0650,0.093892
1121.9287,0.089435
1123.7924,0.086707
1125.6560,0.085251
1127.5197,0.084389
1129.3834,0.083618
1131.2470,0.082081
1133.1107,0.079974
1134.9744,0.078252
1136.8380,0.077336
1138.7017,0.077613
1140.5654,0.078906
1142.4290,0.080062
1144.2927,0.079746
1146.1564,0.077731
1148.0201,0.074796
1149.8837,0.072361
1151.7474,0.072084
1153.6111,0.074158
1155.4747,0.076329
1157.3384,0.075706
1159.2021,0.072521
1161.0657,0.069022
1162.9294,0.066363
1164.7931,0.064599
1166.6567,0.064014
1168.5204,0.064723
1170.3841,0.066219
1172.2477,0.067638
1174.1114,0.067776
1175.9751,0.066062
1177.8388,0.063457
1179.7024,0.061250
1181.5661,0.059860
1183.4298,0.059263
1185.2934,0.059332
1187.1571,0.059796
1189.0208,0.060186
1190.8844,0.060344
1192.7481,0.060375
1194.6118,0.060331
1196.4754,0.060403
1198.3391,0.060819
1200.2028,0.061559
1202.0665,0.062429
1203.9301,0.063224
1205.7938,0.063770
1207.6575,0.064007
1209.5211,0.064140
1211.3848,0.064501
1213.2485,0.065179
1215.1121,0.066250
1216.9758,0.067540
1218.8395,0.068552
1220.7031,0.069451
1222.5668,0.071233
1224.4305,0.074518
1226.2941,0.078941
1228.1578,0.082620
1230.0215,0.083130
1231.8852,0.078733
1233.7488,0.071168
1235.6125,0.065635
1237.4762,0.064108
1239.3398,0.064683
1241.2035,0.065951
1243.0672,0.067511
1244.9308,0.068950
1246.7945,0.070127
1248.6582,0.071284
1250.5218,0.072160
1252.3855,0.071973
1254.2492,0.071259
1256.1129,0.070870
1257.9765,0.070725
1259.8402,0.071085
1261.7039,0.071840
1263.5675,0.072760
1265.4312,0.073854
1267.2949,0.074825
1269.1585,0.075629
1271.0222,0.076612
1272.8859,0.077798
1274.7495,0.079052
1276.6132,0.080125
1278.4769,0.080752
1280.3405,0.080987
1282.2042,0.081246
1284.0679,0.082006
1285.9316,0.083599
1287.7952,0.086161
1289.6589,0.089443
1291.5226,0.093090
1293.3862,0.096151
1295.2499,0.098103
1297.1136,0.100484
1298.9772,0.104471
1300.8409,0.109895
1302.7046,0.115765
1304.5682,0.120187
1306.4319,0.121334
1308.2956,0.117213
1310.1592,0.108218
1312.0229,0.099684
1313.8866,0.095306
1315.7503,0.092744
1317.6139,0.088736
1319.4776,0.085032
1321.3413,0.084661
1323.2049,0.087245
1325.0686,0.091273
1326.9323,0.095273
1328.7959,0.098766
1330.6596,0.102527
1332.5233,0.107253
1334.3869,0.112331
1336.2506,0.116596
1338.1143,0.119328
1339.9780,0.120070
1341.8416,0.118824
1343.7053,0.119841
1345.5690,0.125433
1347.4326,0.134189
1349.2963,0.142645
1351.1600,0.145923
1353.0236,0.145504
1354.8873,0.147937
1356.7510,0.148375
1358.6146,0.136750
1360.4783,0.117492
1362.3420,0.102485
1364.2056,0.096466
1366.0693,0.096171
1367.9330,0.098583
1369.7967,0.102076
1371.6603,0.105244
1373.5240,0.110214
1375.3877,0.116063
1377.2513,0.119978
1379.1150,0.124573
1380.9787,0.130220
1382.8423,0.135741
1384.7060,0.141658
1386.5697,0.150059
1388.4333,0.159835
1390.2970,0.165047
1392.1607,0.168784
1394.0244,0.173511
1395.8880,0.176657
1397.7517,0.175695
1399.6154,0.173382
1401.4790,0.169967
1403.3427,0.167046
1405.2064,0.162523
1407.0700,0.153528
1408.9337,0.142774
1410.7974,0.132141
1412.6610,0.122914
1414.5247,0.115456
1416.3884,0.108964
1418.2520,0.104219
1420.1157,0.102259
1421.9794,0.099500
1423.8431,0.091429
1425.7067,0.078570
1427.5704,0.068927
1429.4341,0.062975
1431.2977,0.060334
1433.1614,0.060164
1435.0251,0.061850
1436.8887,0.065932
1438.7524,0.068175
1440.6161,0.069297
1442.4797,0.072221
1444.3434,0.076367
1446.2071,0.081860
1448.0707,0.088205
1449.9344,0.089963
1451.7981,0.088750
1453.6618,0.091606
1455.5254,0.099517
1457.3891,0.100360
1459.2528,0.080762
1461.1164,0.069178
1462.9801,0.064947
1464.8438,0.064537
1466.7074,0.064140
1468.5711,0.062803
1470.4348,0.062450
1472.2984,0.064589
1474.1621,0.066878
1476.0258,0.067396
1477.8895,0.067686
1479.7531,0.068437
1481.6168,0.070240
1483.4805,0.071795
1485.3441,0.072918
1487.2078,0.074227
1489.0715,0.075682
1490.9351,0.076639
1492.7988,0.075418
1494.6625,0.075514
1496.5261,0.078668
1498.3898,0.082012
1500.2535,0.082512
1502.1171,0.081635
1503.9808,0.081032
1505.8445,0.084837
1507.7082,0.096521
1509.5718,0.096305
1511.4355,0.094822
1513.2992,0.094932
1515.1628,0.095780
1517.0265,0.097970
1518.8902,0.098402
1520.7538,0.100423
1522.6175,0.104316
1524.4812,0.104603
1526.3448,0.106210
1528.2085,0.107554
1530.0722,0.106975
1531.9359,0.108235
1533.7995,0.111888
1535.6632,0.111338
1537.5269,0.109844
1539.3905,0.114188
1541.2542,0.124465
1543.1179,0.126833
1544.9815,0.128797
1546.8452,0.129894
1548.7089,0.131855
1550.5725,0.136477
1552.4362,0.139557
1554.2999,0.141389
1556.1635,0.143111
1558.0272,0.149611
1559.8909,0.167303
1561.7546,0.163255
1563.6182,0.161463
1565.4819,0.164655
1567.3456,0.168279
1569.2092,0.173700
1571.0729,0.178835
1572.9366,0.178736
1574.8002,0.180858
1576.6639,0.187662
1578.5276,0.189830
1580.3912,0.189227
1582.2549,0.189722
1584.1186,0.189526
1585.9822,0.188361
1587.8459,0.186312
1589.7096,0.183591
1591.5733,0.180159
1593.4369,0.176579
1595.3006,0.172793
1597.1643,0.168619
1599.0279,0.164264
1600.8916,0.160314
1602.7553,0.156462
1604.6189,0.152819
1606.4826,0.149307
1608.3463,0.146068
1610.2099,0.142542
1612.0736,0.138567
1613.9373,0.134652
1615.8010,0.131333
1617.6646,0.124453
1619.5283,0.117314
1621.3920,0.112881
1623.2556,0.108322
1625.1193,0.103035
1626.9830,0.099115
1628.8466,0.094330
1630.7103,0.088966
1632.5740,0.084620
1634.4376,0.081781
1636.3013,0.079247
1638.1650,0.077573
1640.0286,0.077669
1641.8923,0.078367
1643.7560,0.079724
1645.6197,0.083062
1647.4833,0.088423
1649.3470,0.090787
1651.2107,0.092334
1653.0743,0.099451
1654.9380,0.107429
1656.8017,0.106608
1658.6653,0.106781
1660.5290,0.106920
1662.3927,0.105775
1664.2563,0.102491
1666.1200,0.098045
1667.9837,0.092700
1669.8474,0.084275
1671.7110,0.075839
1673.5747,0.070887
1675.4384,0.066368
1677.3020,0.062840
1679.1657,0.062214
1681.0294,0.062403
1682.8930,0.063321
1684.7567,0.064738
1686.6204,0.064596
1688.4840,0.064233
1690.3477,0.063263
1692.2114,0.061346
1694.0750,0.059799
1695.9387,0.057640
1697.8024,0.054390
1699.6661,0.052778
1701.5297,0.048773
1703.3934,0.045251
1705.2571,0.042202
1707.1207,0.037402
1708.9844,0.033835
1710.8481,0.031208
1712.7117,0.028954
1714.5754,0.027213
1716.4391,0.025968
1718.3027,0.025101
1720.1664,0.024396
1722.0301,0.024147
1723.8937,0.023571
1725.7574,0.022448
1727.6211,0.021314
1729.4848,0.020082
1731.3484,0.018992
1733.2121,0.018562
1735.0758,0.018000
1736.9394,0.017618
1738.8031,0.017705
1740.6668,0.017445
1742.5304,0.017021
1744.3941,0.016775
1746.2578,0.016490
1748.1214,0.016122
1749.9851,0.015894
1751.8488,0.015791
1753.7125,0.015683
1755.5761,0.015707
1757.4398,0.015644
1759.3035,0.015545
1761.1671,0.015733
1763.0308,0.015672
1764.8945,0.015388
1766.7581,0.015385
1768.6218,0.015234
1770.4855,0.014989
1772.3491,0.015029
1774.2128,0.014634
1776.0765,0.014307
1777.9401,0.014278
1779.8038,0.014423
1781.6675,0.014559
1783.5312,0.014738
1785.3948,0.014919
1787.2585,0.014777
1789.1222,0.014432
1790.9858,0.014401
1792.8495,0.014811
1794.7132,0.014933
1796.5768,0.014992
1798.4405,0.015222
1800.3042,0.015468
1802.1678,0.015685
1804.0315,0.015536
1805.8952,0.015502
1807.7589,0.015726
1809.6225,0.015580
1811.4862,0.015332
1813.3499,0.015473
1815.2135,0.015464
1817.0772,0.015298
1818.9409,0.015351
1820.8045,0.015425
1822.6682,0.015384
1824.5319,0.015280
1826.3955,0.015044
1828.2592,0.015143
1830.1229,0.015534
1831.9865,0.015435
1833.8502,0.015271
1835.7139,0.015374
1837.5776,0.015296
1839.4412,0.015121
1841.3049,0.015090
1843.1686,0.015165
1845.0322,0.015158
1846.8959,0.015065
1848.7596,0.015416
1850.6232,0.015683
1852.4869,0.015536
1854.3506,0.015511
1856.2142,0.015621
1858.0779,0.015683
1859.9416,0.015608
1861.8052,0.015447
1863.6689,0.015225
1865.5326,0.015200
1867.3963,0.015281
1869.2599,0.015006
1871.1236,0.015108
1872.9873,0.015569
1874.8509,0.015607
1876.7146,0.015587
1878.5783,0.015819
1880.4419,0.015946
1882.3056,0.016137
1884.1693,0.016331
1886.0329,0.016196
1887.8966,0.016121
1889.7603,0.015864
1891.6240,0.015025
1893.4876,0.014892
1895.3513,0.015008
1897.2150,0.014630
1899.0786,0.014627
1900.9423,0.014862
1902.8060,0.015017
1904.6696,0.015329
1906.5333,0.015655
1908.3970,0.015539
1910.2606,0.015298
1912.1243,0.015568
1913.9880,0.015979
1915.8516,0.016417
1917.7153,0.016466
1919.5790,0.015975
1921.4427,0.015777
1923.3063,0.015412
1925.1700,0.014911
1927.0337,0.014467
1928.8973,0.014171
1930.7610,0.013993
1932.6247,0.013856
1934.4883,0.014236
1936.3520,0.014205
1938.2157,0.014113
1940.0793,0.014371
1941.9430,0.014362
1943.8067,0.013377
1945.6704,0.012309
1947.5340,0.012477
1949.3977,0.012451
1951.2614,0.011984
1953.1250,0.012056
1954.9887,0.011797
1956.8524,0.011006
1958.7160,0.010865
1960.5797,0.010238
1962.4434,0.009053
1964.3070,0.009056
1966.1707,0.008587
1968.0344,0.006770
1969.8980,0.006747
1971.7617,0.007794
1973.6254,0.007585
1975.4891,0.006735
1977.3527,0.005624
1979.2164,0.006402
1981.0801,0.008365
1982.9437,0.009332
1984.8074,0.009411
1986.6711,0.008813
1988.5347,0.009211
1990.3984,0.010685
1992.2621,0.010458
1994.1257,0.009967
1995.9894,0.010574
1997.8531,0.010429
1999.7167,0.010053
2001.5804,0.009850
2003.4441,0.009167
2005.3078,0.008133
2007.1714,0.008424
2009.0351,0.008901
2010.8988,0.008641
2012.7624,0.008548
2014.6261,0.006853
2016.4898,0.005855
2018.3534,0.007351
2020.2171,0.007694
2022.0808,0.006921
2023.9444,0.008035
2025.8081,0.009006
2027.6718,0.008656
2029.5355,0.007896
2031.3991,0.007420
2033.2628,0.007866
2035.1265,0.008851
2036.9901,0.009740
2038.8538,0.010431
2040.7175,0.011516
2042.5811,0.012064
2044.4448,0.011425
2046.3085,0.011497
2048.1721,0.012738
2050.0358,0.014807
2051.8995,0.016381
2053.7631,0.017164
2055.6268,0.017844
2057.4905,0.018398
2059.3542,0.018667
2061.2178,0.018622
2063.0815,0.019141
2064.9452,0.020044
2066.8088,0.020127
2068.6725,0.020328
2070.5362,0.020775
2072.3998,0.020971
2074.2635,0.021147
2076.1272,0.021094
2077.9908,0.020975
2079.8545,0.021120
2081.7182,0.021236
2083.5819,0.021513
2085.4455,0.021635
2087.3092,0.021813
2089.1729,0.022282
2091.0365,0.021730
2092.9002,0.020631
2094.7639,0.020610
2096.6275,0.020895
2098.4912,0.020939
2100.3549,0.021031
2102.2185,0.020613
2104.0822,0.020451
2105.9459,0.020921
2107.8095,0.020921
2109.6732,0.020964
2111.5369,0.021109
2113.4006,0.020851
2115.2642,0.020896
2117.1279,0.021163
2118.9916,0.021217
2120.8552,0.021138
2122.7189,0.020560
2124.5826,0.019803
2126.4462,0.018890
2128.3099,0.018112
2130.1736,0.018587
2132.0372,0.018616
2133.9009,0.016659
2135.7646,0.015616
2137.6282,0.016711
2139.4919,0.016559
2141.3556,0.015337
2143.2193,0.014862
2145.0829,0.013961
2146.9466,0.012863
2148.8103,0.012679
2150.6739,0.012468
2152.5376,0.010561
2154.4013,0.008854
2156.2649,0.007207
2158.1286,0.004225
2159.9923,0.005714
2161.8559,0.010272
2163.7196,0.010925
2165.5833,0.009856
2167.4470,0.009801
2169.3106,0.010554
2171.1743,0.011810
2173.0380,0.012932
2174.9016,0.013095
2176.7653,0.012586
2178.6290,0.012867
2180.4926,0.013735
2182.3563,0.014304
2184.2200,0.015404
2186.0836,0.016185
2187.9473,0.016157
2189.8110,0.016122
2191.6746,0.015969
2193.5383,0.015256
2195.4020,0.015487
2197.2657,0.016609
2199.1293,0.017416
2200.9930,0.017623
2202.8567,0.017153
2204.7203,0.017331
2206.5840,0.018122
2208.4477,0.018333
2210.3113,0.018536
2212.1750,0.019365
2214.0387,0.019986
2215.9023,0.019944
2217.7660,0.020680
2219.6297,0.022010
2221.4934,0.022540
2223.3570,0.022122
2225.2207,0.021996
2227.0844,0.021984
2228.9480,0.021690
2230.8117,0.021495
2232.6754,0.021522
2234.5390,0.021905
2236.4027,0.022371
2238.2664,0.022768
2240.1300,0.023042
2241.9937,0.023123
2243.8574,0.022988
2245.7210,0.023259
2247.5847,0.023902
2249.4484,0.024274
2251.3121,0.024564
2253.1757,0.024693
2255.0394,0.024567
2256.9031,0.024921
2258.7667,0.025737
2260.6304,0.026554
2262.4941,0.026643
2264.3577,0.026232
2266.2214,0.026661
2268.0851,0.026996
2269.9487,0.026957
2271.8124,0.027678
2273.6761,0.028747
2275.5397,0.028981
2277.4034,0.029190
2279.2671,0.030331
2281.1308,0.030806
2282.9944,0.030347
2284.8581,0.030151
2286.7218,0.030393
2288.5854,0.030873
2290.4491,0.031535
2292.3128,0.031925
2294.1764,0.031749
2296.0401,0.031447
2297.9038,0.031616
2299.7674,0.031947
2301.6311,0.032114
2303.4948,0.032514
2305.3585,0.032966
2307.2221,0.032907
2309.0858,0.032723
2310.9495,0.032605
2312.8131,0.032430
2314.6768,0.032589
2316.5405,0.033016
2318.4041,0.033309
2320.2678,0.033596
2322.1315,0.033682
2323.9951,0.033601
2325.8588,0.033406
2327.7225,0.032837
2329.5861,0.032428
2331.4498,0.032791
2333.3135,0.032904
2335.1772,0.032500
2337.0408,0.032432
2338.9045,0.032808
2340.7682,0.033354
2342.6318,0.034149
2344.4955,0.034855
2346.3592,0.034648
2348.2228,0.033676
2350.0865,0.032903
2351.9502,0.032766
2353.8138,0.032874
2355.6775,0.033004
2357.5412,0.033466
2359.4049,0.033756
2361.2685,0.033504
2363.1322,0.033589
2364.9959,0.034330
2366.8595,0.034684
2368.7232,0.034947
2370.5869,0.035429
2372.4505,0.035789
2374.3142,0.035846
2376.1779,0.035846
2378.0415,0.035910
2379.9052,0.035751
2381.7689,0.035676
2383.6325,0.036150
2385.4962,0.036628
2387.3599,0.036595
2389.2236,0.036325
2391.0872,0.036307
2392.9509,0.036452
2394.8146,0.036569
2396.6782,0.036601
2398.5419,0.036701
2400.4056,0.036982
2402.2692,0.037212
2404.1329,0.037061
2405.9966,0.036969
2407.8602,0.037024
2409.7239,0.036856
2411.5876,0.036884
2413.4512,0.037067
2415.3149,0.037397
2417.1786,0.037617
2419.0423,0.037628
2420.9059,0.037449
2422.7696,0.037246
2424.6333,0.037193
2426.4969,0.037217
2428.3606,0.037496
2430.2243,0.037786
2432.0879,0.037741
2433.9516,0.037578
2435.8153,0.037782
2437.6789,0.038323
2439.5426,0.038386
2441.4063,0.038191
2443.2700,0.038351
2445.1336,0.038567
2446.9973,0.038915
2448.8610,0.038950
2450.7246,0.038702
2452.5883,0.038502
2454.4520,0.038641
2456.3156,0.039058
2458.1793,0.039194
2460.0430,0.038968
2461.9066,0.039152
2463.7703,0.039366
2465.6340,0.039303
2467.4976,0.039236
2469.3613,0.039344
2471.2250,0.039658
2473.0887,0.039756
2474.9523,0.039824
2476.8160,0.040221
2478.6797,0.040439
2480.5433,0.040410
2482.4070,0.040102
2484.2707,0.039890
2486.1343,0.040048
2487.9980,0.040553
2489.8617,0.040598
2491.7253,0.039849
2493.5890,0.039886
2495.4527,0.040837
2497.3164,0.041207
2499.1800,0.040791
2501.0437,0.040253
2502.9074,0.040219
2504.7710,0.040202
2506.6347,0.040385
2508.4984,0.040825
2510.3620,0.040977
2512.2257,0.040990
2514.0894,0.041246
2515.9530,0.041103
2517.8167,0.041144
2519.6804,0.041514
2521.5440,0.041751
2523.4077,0.041368
2525.2714,0.041390
2527.1351,0.041666
