Wavenumber,Intensity
650.4205,0.220508
652.2841,0.214434
654.1478,0.209385
656.0115,0.203937
657.8751,0.201529
659.7388,0.197362
661.6025,0.194362
663.4661,0.191536
665.3298,0.188959
667.1935,0.188607
669.0571,0.191224
670.9208,0.190253
672.7845,0.189880
674.6481,0.189567
676.5118,0.189787
678.3755,0.190161
680.2392,0.190685
682.1028,0.190358
683.9665,0.189639
685.8302,0.190345
687.6938,0.191493
689.5575,0.189801
691.4212,0.189448
693.2848,0.190250
695.1485,0.191323
697.0122,0.193132
698.8758,0.195162
700.7395,0.196464
702.6032,0.196612
704.4669,0.192789
706.3305,0.187237
708.1942,0.180987
710.0579,0.173147
711.9215,0.164072
713.7852,0.157157
715.6489,0.150522
717.5125,0.143659
719.3762,0.137298
721.2399,0.131231
723.1035,0.125702
724.9672,0.121344
726.8309,0.117219
728.6945,0.113331
730.5582,0.109041
732.4219,0.104941
734.2856,0.101680
736.1492,0.099131
738.0129,0.097584
739.8766,0.098007
741.7402,0.099963
743.6039,0.102255
745.4676,0.103410
747.3312,0.103810
749.1949,0.103711
751.0586,0.103053
752.9222,0.102567
754.7859,0.101713
756.6496,0.100534
758.5132,0.099786
760.3769,0.099136
762.2406,0.098708
764.1043,0.098446
765.9679,0.097932
767.8316,0.097337
769.6953,0.096777
771.5589,0.095957
773.4226,0.095577
775.2863,0.095533
777.1499,0.095648
779.0136,0.096009
780.8773,0.096607
782.7409,0.097372
784.6046,0.098734
786.4683,0.100145
788.3320,0.101265
790.1956,0.102981
792.0593,0.105012
793.9230,0.106615
795.7866,0.108137
797.6503,0.109623
799.5140,0.111209
801.3776,0.112730
803.2413,0.113088
805.1050,0.112161
806.9686,0.110874
808.8323,0.109010
810.6960,0.106430
812.5596,0.103838
814.4233,0.100871
816.2870,0.097310
818.1507,0.094421
820.0143,0.092531
821.8780,0.091098
823.7417,0.090164
825.6053,0.090463
827.4690,0.092130
829.3327,0.092976
831.1963,0.088092
833.0600,0.077585
834.9237,0.068425
836.7873,0.064470
838.6510,0.063653
840.5147,0.063261
842.3784,0.062910
844.2420,0.062899
846.1057,0.062798
847.9694,0.062444
849.8330,0.062152
851.6967,0.062114
853.5604,0.062421
855.4240,0.062765
857.2877,0.062832
859.1514,0.062714
861.0150,0.062540
862.8787,0.062113
864.7424,0.061345
866.6060,0.060630
868.4697,0.060165
870.3334,0.059766
872.1971,0.059400
874.0607,0.059101
875.9244,0.058963
877.7881,0.059172
879.6517,0.059479
881.5154,0.059752
883.3791,0.060197
885.2427,0.060949
887.1064,0.061896
888.9701,0.062755
890.8337,0.063608
892.6974,0.064542
894.5611,0.065430
896.4247,0.066560
898.2884,0.068001
900.1521,0.069762
902.0158,0.072133
903.8794,0.075078
905.7431,0.078715
907.6068,0.083279
909.4704,0.088847
911.3341,0.095633
913.1978,0.103240
915.0614,0.106663
916.9251,0.098688
918.7888,0.083633
920.6524,0.072416
922.5161,0.067593
924.3798,0.066246
926.2435,0.066335
928.1071,0.066739
929.9708,0.067111
931.8345,0.067451
933.6981,0.067863
935.5618,0.068236
937.4255,0.068496
939.2891,0.068673
941.1528,0.068810
943.0165,0.069233
944.8801,0.069923
946.7438,0.070809
948.6075,0.071849
950.4711,0.073052
952.3348,0.074448
954.1985,0.076026
956.0622,0.077880
957.9258,0.079907
959.7895,0.082009
961.6532,0.084247
963.5168,0.086804
965.3805,0.089809
967.2442,0.093334
969.1078,0.097419
970.9715,0.101764
972.8352,0.106777
974.6988,0.113989
976.5625,0.125061
978.4262,0.142736
980.2899,0.166702
982.1535,0.176512
984.0172,0.151054
985.8809,0.117785
987.7445,0.103626
989.6082,0.102288
991.4719,0.103507
993.3355,0.104789
995.1992,0.105819
997.0629,0.106597
998.9265,0.107157
1000.7902,0.107535
1002.6539,0.107867
1004.5175,0.108222
1006.3812,0.108549
1008.2449,0.109033
1010.1086,0.109611
1011.9722,0.109987
1013.8359,0.110212
1015.6996,0.110448
1017.5632,0.110561
1019.4269,0.110436
1021.2906,0.110219
1023.1542,0.109948
1025.0179,0.109580
1026.8816,0.109325
1028.7452,0.109234
1030.6089,0.109349
1032.4726,0.109893
1034.3362,0.110911
1036.1999,0.112456
1038.0636,0.114359
1039.9273,0.116614
1041.7909,0.119533
1043.6546,0.122835
1045.5183,0.125891
1047.3819,0.127691
1049.2456,0.126183
1051.1093,0.119534
1052.9729,0.109021
1054.8366,0.098794
1056.7003,0.091918
1058.5639,0.088383
1060.4276,0.086796
1062.2913,0.086134
1064.1550,0.086317
1066.0186,0.087631
1067.8823,0.090041
1069.7460,0.093352
1071.6096,0.097267
1073.4733,0.101035
1075.3370,0.103921
1077.2006,0.105890
1079.0643,0.107393
1080.9280,0.108660
1082.7916,0.109745
1084.6553,0.110959
1086.5190,0.112549
1088.3826,0.114717
1090.2463,0.117566
1092.1100,0.121117
1093.9737,0.125394
1095.8373,0.130594
1097.7010,0.136701
1099.5647,0.143196
1101.4283,0.149750
1103.2920,0.155577
1105.1557,0.159199
1107.0193,0.158942
1108.8830,0.153740
1110.7467,0.143861
1112.6103,0.131135
1114.4740,0.118113
1116.3377,0.106656
1118.2014,0.097573
1120.0650,0.090989
1121.9287,0.086619
1123.7924,0.083823
1125.6560,0.081609
1127.5197,0.079462
1129.3834,0.077414
1131.2470,0.075568
1133.1107,0.074111
1134.9744,0.073309
1136.8380,0.073246
1138.7017,0.073752
1140.5654,0.074588
1142.4290,0.075582
1144.2927,0.076577
1146.1564,0.077246
1148.0201,0.077553
1149.8837,0.077818
1151.7474,0.077959
1153.6111,0.077804
1155.4747,0.077562
1157.3384,0.077270
1159.2021,0.076994
1161.0657,0.076902
1162.9294,0.077110
1164.7931,0.077957
1166.6567,0.079648
1168.5204,0.081943
1170.3841,0.084428
1172.2477,0.085945
1174.1114,0.084701
1175.9751,0.080266
1177.8388,0.074525
1179.7024,0.069819
1181.5661,0.067034
1183.4298,0.065818
1185.2934,0.065498
1187.1571,0.065639
1189.0208,0.065942
1190.8844,0.066223
1192.7481,0.066499
1194.6118,0.066769
1196.4754,0.067063
1198.3391,0.067489
1200.2028,0.068066
1202.0665,0.068643
1203.9301,0.069096
1205.7938,0.069481
1207.6575,0.069823
1209.5211,0.070098
1211.3848,0.070443
1213.2485,0.070900
1215.1121,0.071322
1216.9758,0.071792
1218.8395,0.072354
1220.7031,0.072859
1222.5668,0.073385
1224.4305,0.074012
1226.2941,0.074695
1228.1578,0.075322
1230.0215,0.075879
1231.8852,0.076483
1233.7488,0.077102
1235.6125,0.077654
1237.4762,0.078268
1239.3398,0.078950
1241.2035,0.079542
1243.0672,0.080092
1244.9308,0.080656
1246.7945,0.081309
1248.6582,0.082065
1250.5218,0.082729
1252.3855,0.083335
1254.2492,0.084046
1256.1129,0.084781
1257.9765,0.085569
1259.8402,0.086573
1261.7039,0.087694
1263.5675,0.088815
1265.4312,0.089772
1267.2949,0.090239
1269.1585,0.090278
1271.0222,0.090254
1272.8859,0.090400
1274.7495,0.090849
1276.6132,0.091729
1278.4769,0.093040
1280.3405,0.094581
1282.2042,0.096223
1284.0679,0.098167
1285.9316,0.100529
1287.7952,0.103151
1289.6589,0.106003
1291.5226,0.109245
1293.3862,0.113091
1295.2499,0.117593
1297.1136,0.122768
1298.9772,0.128933
1300.8409,0.136273
1302.7046,0.143862
1304.5682,0.149110
1306.4319,0.148062
1308.2956,0.136592
1310.1592,0.115944
1312.0229,0.095230
1313.8866,0.082162
1315.7503,0.077637
1317.6139,0.078082
1319.4776,0.080511
1321.3413,0.083343
1323.2049,0.086143
1325.0686,0.089000
1326.9323,0.091885
1328.7959,0.094710
1330.6596,0.097272
1332.5233,0.099260
1334.3869,0.100518
1336.2506,0.101402
1338.1143,0.102945
1339.9780,0.104969
1341.8416,0.105479
1343.7053,0.105329
1345.5690,0.105934
1347.4326,0.106947
1349.2963,0.108202
1351.1600,0.109678
1353.0236,0.111530
1354.8873,0.113918
1356.7510,0.116227
1358.6146,0.118213
1360.4783,0.121016
1362.3420,0.125727
1364.2056,0.129789
1366.0693,0.131666
1367.9330,0.134604
1369.7967,0.138254
1371.6603,0.141330
1373.5240,0.145927
1375.3877,0.150930
1377.2513,0.154049
1379.1150,0.158231
1380.9787,0.163685
1382.8423,0.169232
1384.7060,0.175263
1386.5697,0.183350
1388.4333,0.192376
1390.2970,0.196771
1392.1607,0.198477
1394.0244,0.198629
1395.8880,0.193783
1397.7517,0.185092
1399.6154,0.175061
1401.4790,0.165138
1403.3427,0.155723
1405.2064,0.141908
1407.0700,0.123872
1408.9337,0.106599
1410.7974,0.091324
1412.6610,0.080899
1414.5247,0.076436
1416.3884,0.076813
1418.2520,0.082228
1420.1157,0.091024
1421.9794,0.094845
1423.8431,0.092599
1425.7067,0.083719
1427.5704,0.074085
1429.4341,0.068319
1431.2977,0.066198
1433.1614,0.066220
1435.0251,0.067856
1436.8887,0.071645
1438.7524,0.073798
1440.6161,0.074359
1442.4797,0.075707
1444.3434,0.076926
1446.2071,0.077925
1448.0707,0.078499
1449.9344,0.076985
1451.7981,0.073963
1453.6618,0.071047
1455.5254,0.070654
1457.3891,0.074930
1459.2528,0.076453
1461.1164,0.074883
1462.9801,0.074753
1464.8438,0.075539
1466.7074,0.074403
1468.5711,0.071938
1470.4348,0.070792
1472.2984,0.071627
1474.1621,0.072429
1476.0258,0.071816
1477.8895,0.071374
1479.7531,0.071141
1481.6168,0.071601
1483.4805,0.071809
1485.3441,0.071874
1487.2078,0.072897
1489.0715,0.075414
1490.9351,0.077393
1492.7988,0.076560
1494.6625,0.076277
1496.5261,0.078793
1498.3898,0.081373
1500.2535,0.081547
1502.1171,0.080674
1503.9808,0.080355
1505.8445,0.083503
1507.7082,0.090971
1509.5718,0.090144
1511.4355,0.089178
1513.2992,0.089732
1515.1628,0.090793
1517.0265,0.092697
1518.8902,0.093764
1520.7538,0.095699
1522.6175,0.099033
1524.4812,0.098948
1526.3448,0.100084
1528.2085,0.101161
1530.0722,0.101033
1531.9359,0.102337
1533.7995,0.105402
1535.6632,0.105487
1537.5269,0.104987
1539.3905,0.109287
1541.2542,0.116527
1543.1179,0.117581
1544.9815,0.118882
1546.8452,0.119760
1548.7089,0.120945
1550.5725,0.123829
1552.4362,0.125759
1554.2999,0.126950
1556.1635,0.129007
1558.0272,0.135152
1559.8909,0.148214
1561.7546,0.144604
1563.6182,0.142941
1565.4819,0.145200
1567.3456,0.147850
1569.2092,0.152184
1571.0729,0.156748
1572.9366,0.157347
1574.8002,0.160473
1576.6639,0.167916
1578.5276,0.171063
1580.3912,0.171492
1582.2549,0.173890
1584.1186,0.176232
1585.9822,0.177876
1587.8459,0.178722
1589.7096,0.179128
1591.5733,0.178784
1593.4369,0.177935
1595.3006,0.176324
1597.1643,0.174080
1599.0279,0.171526
1600.8916,0.168891
1602.7553,0.166215
1604.6189,0.163699
1606.4826,0.161472
1608.3463,0.159507
1610.2099,0.157251
1612.0736,0.154145
1613.9373,0.150348
1615.8010,0.146386
1617.6646,0.139975
1619.5283,0.132674
1621.3920,0.127274
1623.2556,0.121077
1625.1193,0.113483
1626.9830,0.106106
1628.8466,0.097433
1630.7103,0.088684
1632.5740,0.081614
1634.4376,0.074884
1636.3013,0.067656
1638.1650,0.063274
1640.0286,0.062044
1641.8923,0.061379
1643.7560,0.061873
1645.6197,0.063926
1647.4833,0.067232
1649.3470,0.068392
1651.2107,0.070028
1653.0743,0.075908
1654.9380,0.080646
1656.8017,0.079226
1658.6653,0.079402
1660.5290,0.079682
1662.3927,0.079468
1664.2563,0.078093
1666.1200,0.076112
1667.9837,0.074633
1669.8474,0.073522
1671.7110,0.072319
1673.5747,0.072553
1675.4384,0.074861
1677.3020,0.077608
1679.1657,0.079819
1681.0294,0.083529
1682.8930,0.088002
1684.7567,0.094659
1686.6204,0.096501
1688.4840,0.095074
1690.3477,0.093355
1692.2114,0.090265
1694.0750,0.087107
1695.9387,0.083767
1697.8024,0.079436
1699.6661,0.076326
1701.5297,0.070012
1703.3934,0.063989
1705.2571,0.057258
1707.1207,0.048471
1708.9844,0.042204
1710.8481,0.037883
1712.7117,0.034591
1714.5754,0.032586
1716.4391,0.031033
1718.3027,0.030049
1720.1664,0.028796
1722.0301,0.027731
1723.8937,0.026193
1725.7574,0.024149
1727.6211,0.022175
1729.4848,0.020651
1731.3484,0.019338
1733.2121,0.018727
1735.0758,0.017715
1736.9394,0.016867
1738.8031,0.016698
1740.6668,0.016589
1742.5304,0.016156
1744.3941,0.015923
1746.2578,0.015558
1748.1214,0.015307
1749.9851,0.015136
1751.8488,0.015069
1753.7125,0.014666
1755.5761,0.014601
1757.4398,0.014602
1759.3035,0.014569
1761.1671,0.014568
1763.0308,0.014583
1764.8945,0.014292
1766.7581,0.014251
1768.6218,0.014226
1770.4855,0.014164
1772.3491,0.014237
1774.2128,0.014357
1776.0765,0.014122
1777.9401,0.014073
1779.8038,0.014156
1781.6675,0.014362
1783.5312,0.014273
1785.3948,0.014280
1787.2585,0.014298
1789.1222,0.014289
1790.9858,0.014343
1792.8495,0.014665
1794.7132,0.014489
1796.5768,0.014303
1798.4405,0.014341
1800.3042,0.014669
1802.1678,0.014845
1804.0315,0.014897
1805.8952,0.014783
1807.7589,0.014855
1809.6225,0.014942
1811.4862,0.015080
1813.3499,0.014809
1815.2135,0.014563
1817.0772,0.014571
1818.9409,0.014709
1820.8045,0.014802
1822.6682,0.014813
1824.5319,0.014540
1826.3955,0.014438
1828.2592,0.014409
1830.1229,0.014404
1831.9865,0.014199
1833.8502,0.014306
1835.7139,0.014310
1837.5776,0.014261
1839.4412,0.014095
1841.3049,0.014014
1843.1686,0.014072
1845.0322,0.014366
1846.8959,0.014501
1848.7596,0.014705
1850.6232,0.014548
1852.4869,0.014449
1854.3506,0.014526
1856.2142,0.014633
1858.0779,0.014433
1859.9416,0.014459
1861.8052,0.014593
1863.6689,0.014842
1865.5326,0.015004
1867.3963,0.014773
1869.2599,0.014432
1871.1236,0.014557
1872.9873,0.014524
1874.8509,0.014541
1876.7146,0.014610
1878.5783,0.014944
1880.4419,0.014817
1882.3056,0.014694
1884.1693,0.014530
1886.0329,0.014333
1887.8966,0.014239
1889.7603,0.014371
1891.6240,0.014327
1893.4876,0.014527
1895.3513,0.014491
1897.2150,0.014449
1899.0786,0.014331
1900.9423,0.014732
1902.8060,0.015065
1904.6696,0.015125
1906.5333,0.014755
1908.3970,0.014481
1910.2606,0.014531
1912.1243,0.014563
1913.9880,0.014398
1915.8516,0.014582
1917.7153,0.014462
1919.5790,0.014417
1921.4427,0.014504
1923.3063,0.014387
1925.1700,0.013854
1927.0337,0.013853
1928.8973,0.013945
1930.7610,0.014291
1932.6247,0.013887
1934.4883,0.013737
1936.3520,0.013704
1938.2157,0.013791
1940.0793,0.013990
1941.9430,0.014090
1943.8067,0.012712
1945.6704,0.012077
1947.5340,0.012140
1949.3977,0.012099
1951.2614,0.011464
1953.1250,0.011467
1954.9887,0.011617
1956.8524,0.011154
1958.7160,0.010435
1960.5797,0.010415
1962.4434,0.009527
1964.3070,0.007716
1966.1707,0.005590
1968.0344,0.005634
1969.8980,0.006239
1971.7617,0.005767
1973.6254,0.005335
1975.4891,0.005766
1977.3527,0.006779
1979.2164,0.007795
1981.0801,0.007736
1982.9437,0.008489
1984.8074,0.009249
1986.6711,0.009614
1988.5347,0.009798
1990.3984,0.010802
1992.2621,0.010688
1994.1257,0.010288
1995.9894,0.010149
1997.8531,0.010612
1999.7167,0.010436
2001.5804,0.010088
2003.4441,0.009634
2005.3078,0.008779
2007.1714,0.007932
2009.0351,0.008716
2010.8988,0.008918
2012.7624,0.008363
2014.6261,0.006654
2016.4898,0.006077
2018.3534,0.006424
2020.2171,0.008006
2022.0808,0.008617
2023.9444,0.007627
2025.8081,0.006564
2027.6718,0.007503
2029.5355,0.007304
2031.3991,0.008808
2033.2628,0.009414
2035.1265,0.009445
2036.9901,0.009250
2038.8538,0.008720
2040.7175,0.008132
2042.5811,0.008523
2044.4448,0.008795
2046.3085,0.009886
2048.1721,0.011035
2050.0358,0.011745
2051.8995,0.011841
2053.7631,0.012502
2055.6268,0.014092
2057.4905,0.014805
2059.3542,0.014179
2061.2178,0.014065
2063.0815,0.014804
2064.9452,0.015664
2066.8088,0.015349
2068.6725,0.015051
2070.5362,0.015153
2072.3998,0.015982
2074.2635,0.016159
2076.1272,0.016186
2077.9908,0.016636
2079.8545,0.017386
2081.7182,0.017504
2083.5819,0.017634
2085.4455,0.017701
2087.3092,0.017493
2089.1729,0.017199
2091.0365,0.017762
2092.9002,0.017596
2094.7639,0.016671
2096.6275,0.016466
2098.4912,0.017150
2100.3549,0.017041
2102.2185,0.017124
2104.0822,0.017667
2105.9459,0.018010
2107.8095,0.017791
2109.6732,0.017781
2111.5369,0.018009
2113.4006,0.018135
2115.2642,0.018271
2117.1279,0.018933
2118.9916,0.018662
2120.8552,0.018358
2122.7189,0.017936
2124.5826,0.017709
2126.4462,0.017911
2128.3099,0.017390
2130.1736,0.016945
2132.0372,0.017195
2133.9009,0.016979
2135.7646,0.016577
2137.6282,0.015292
2139.4919,0.014387
2141.3556,0.014088
2143.2193,0.014535
2145.0829,0.014162
2146.9466,0.012596
2148.8103,0.011921
2150.6739,0.012690
2152.5376,0.012088
2154.4013,0.010396
2156.2649,0.007778
2158.1286,0.008040
2159.9923,0.008721
2161.8559,0.009511
2163.7196,0.009517
2165.5833,0.009589
2167.4470,0.011207
2169.3106,0.012811
2171.1743,0.011946
2173.0380,0.011178
2174.9016,0.010402
2176.7653,0.010972
2178.6290,0.013466
2180.4926,0.014185
2182.3563,0.012679
2184.2200,0.012664
2186.0836,0.013427
2187.9473,0.014958
2189.8110,0.015157
2191.6746,0.014392
2193.5383,0.014482
2195.4020,0.015182
2197.2657,0.015633
2199.1293,0.016209
2200.9930,0.015234
2202.8567,0.015210
2204.7203,0.016179
2206.5840,0.017186
2208.4477,0.016923
2210.3113,0.016872
2212.1750,0.017120
2214.0387,0.017239
2215.9023,0.017332
2217.7660,0.017472
2219.6297,0.017267
2221.4934,0.017711
2223.3570,0.018222
2225.2207,0.019015
2227.0844,0.018506
2228.9480,0.018502
2230.8117,0.019160
2232.6754,0.019467
2234.5390,0.019395
2236.4027,0.019547
2238.2664,0.019738
2240.1300,0.019655
2241.9937,0.020105
2243.8574,0.020451
2245.7210,0.019968
2247.5847,0.020270
2249.4484,0.019922
2251.3121,0.020068
2253.1757,0.020990
2255.0394,0.021481
2256.9031,0.021605
2258.7667,0.021861
2260.6304,0.022009
2262.4941,0.022335
2264.3577,0.022786
2266.2214,0.022765
2268.0851,0.022589
2269.9487,0.022235
2271.8124,0.022636
2273.6761,0.023605
2275.5397,0.024092
2277.4034,0.024361
2279.2671,0.024651
2281.1308,0.025393
2282.9944,0.025811
2284.8581,0.025416
2286.7218,0.025180
2288.5854,0.025118
2290.4491,0.025315
2292.3128,0.025797
2294.1764,0.025633
2296.0401,0.025664
2297.9038,0.025312
2299.7674,0.025277
2301.6311,0.025631
2303.4948,0.025769
2305.3585,0.025653
2307.2221,0.026172
2309.0858,0.026446
2310.9495,0.026182
2312.8131,0.026344
2314.6768,0.026109
2316.5405,0.025844
2318.4041,0.025910
2320.2678,0.026034
2322.1315,0.025819
2323.9951,0.025790
2325.8588,0.025851
2327.7225,0.025319
2329.5861,0.025044
2331.4498,0.025073
2333.3135,0.025064
2335.1772,0.025062
2337.0408,0.024782
2338.9045,0.024676
2340.7682,0.025150
2342.6318,0.025852
2344.4955,0.026075
2346.3592,0.025732
2348.2228,0.025330
2350.0865,0.024998
2351.9502,0.024636
2353.8138,0.024095
2355.6775,0.023891
2357.5412,0.024534
2359.4049,0.025099
2361.2685,0.025406
2363.1322,0.025738
2364.9959,0.025130
2366.8595,0.025021
2368.7232,0.025527
2370.5869,0.025705
2372.4505,0.025890
2374.3142,0.025894
2376.1779,0.026217
2378.0415,0.026344
2379.9052,0.026285
2381.7689,0.026655
2383.6325,0.026770
2385.4962,0.026608
2387.3599,0.026488
2389.2236,0.026410
2391.0872,0.026229
2392.9509,0.026404
2394.8146,0.026782
2396.6782,0.026782
2398.5419,0.026426
2400.4056,0.026259
2402.2692,0.026534
2404.1329,0.026981
2405.9966,0.026951
2407.8602,0.026897
2409.7239,0.026943
2411.5876,0.026649
2413.4512,0.026682
2415.3149,0.027076
2417.1786,0.027538
2419.0423,0.027769
2420.9059,0.027805
2422.7696,0.027772
2424.6333,0.027841
2426.4969,0.027927
2428.3606,0.027859
2430.2243,0.027742
2432.0879,0.027806
2433.9516,0.027914
2435.8153,0.027769
2437.6789,0.027812
2439.5426,0.028026
2441.4063,0.028071
2443.2700,0.027877
2445.1336,0.027776
2446.9973,0.027912
2448.8610,0.028008
2450.7246,0.027968
2452.5883,0.027682
2454.4520,0.027771
2456.3156,0.028238
2458.1793,0.027914
2460.0430,0.027638
2461.9066,0.027809
2463.7703,0.027931
2465.6340,0.027622
2467.4976,0.027475
2469.3613,0.027332
2471.2250,0.027457
2473.0887,0.027665
2474.9523,0.027761
2476.8160,0.027791
2478.6797,0.028145
2480.5433,0.028458
2482.4070,0.028221
2484.2707,0.027988
2486.1343,0.028247
2487.9980,0.028618
2489.8617,0.028880
2491.7253,0.029152
2493.5890,0.028834
2495.4527,0.028712
2497.3164,0.028985
2499.1800,0.029184
2501.0437,0.029111
2502.9074,0.028983
2504.7710,0.029050
2506.6347,0.029111
2508.4984,0.029386
2510.3620,0.029573
2512.2257,0.029636
2514.0894,0.029664
2515.9530,0.029592
2517.8167,0.029440
2519.6804,0.029592
2521.5440,0.029876
2523.4077,0.029955
2525.2714,0.030125
2527.1351,0.030246
