Wavenumber,Intensity
650.4205,0.290100
652.2841,0.281892
654.1478,0.274854
656.0115,0.270126
657.8751,0.265745
659.7388,0.260738
661.6025,0.258733
663.4661,0.254509
665.3298,0.249601
667.1935,0.248646
669.0571,0.253103
670.9208,0.249866
672.7845,0.247915
674.6481,0.248265
676.5118,0.249059
678.3755,0.249698
680.2392,0.251926
682.1028,0.251401
683.9665,0.250039
685.8302,0.251244
687.6938,0.251930
689.5575,0.249493
691.4212,0.249448
693.2848,0.251319
695.1485,0.254260
697.0122,0.256457
698.8758,0.258162
700.7395,0.258445
702.6032,0.258112
704.4669,0.254438
706.3305,0.247053
708.1942,0.237245
710.0579,0.226088
711.9215,0.213818
713.7852,0.202783
715.6489,0.193451
717.5125,0.185128
719.3762,0.177207
721.2399,0.170262
723.1035,0.162994
724.9672,0.156592
726.8309,0.150631
728.6945,0.144898
730.5582,0.139806
732.4219,0.134952
734.2856,0.129872
736.1492,0.125775
738.0129,0.123935
739.8766,0.125068
741.7402,0.127715
743.6039,0.130683
745.4676,0.132851
747.3312,0.133427
749.1949,0.132426
751.0586,0.130980
752.9222,0.129926
754.7859,0.129051
756.6496,0.128044
758.5132,0.127394
760.3769,0.126843
762.2406,0.125890
764.1043,0.124713
765.9679,0.123715
767.8316,0.122872
769.6953,0.122556
771.5589,0.122086
773.4226,0.121899
775.2863,0.122190
777.1499,0.122780
779.0136,0.123329
780.8773,0.123977
782.7409,0.125405
784.6046,0.127208
786.4683,0.128779
788.3320,0.130657
790.1956,0.132898
792.0593,0.135675
793.9230,0.138678
795.7866,0.141031
797.6503,0.143057
799.5140,0.145130
801.3776,0.146482
803.2413,0.146803
805.1050,0.146352
806.9686,0.145104
808.8323,0.142452
810.6960,0.138654
812.5596,0.134834
814.4233,0.131155
816.2870,0.126891
818.1507,0.122868
820.0143,0.119377
821.8780,0.116821
823.7417,0.115901
825.6053,0.116538
827.4690,0.118907
829.3327,0.120290
831.1963,0.113342
833.0600,0.098431
834.9237,0.085809
836.7873,0.079874
838.6510,0.077898
840.5147,0.077402
842.3784,0.077171
844.2420,0.076753
846.1057,0.076445
847.9694,0.076283
849.8330,0.076137
851.6967,0.076102
853.5604,0.076073
855.4240,0.075914
857.2877,0.075942
859.1514,0.075985
861.0150,0.075625
862.8787,0.075077
864.7424,0.074470
866.6060,0.073632
868.4697,0.072777
870.3334,0.072354
872.1971,0.072096
874.0607,0.071909
875.9244,0.071904
877.7881,0.071852
879.6517,0.072034
881.5154,0.072699
883.3791,0.073460
885.2427,0.074122
887.1064,0.074937
888.9701,0.075846
890.8337,0.076891
892.6974,0.078102
894.5611,0.079411
896.4247,0.080856
898.2884,0.082531
900.1521,0.084783
902.0158,0.087775
903.8794,0.091679
905.7431,0.096815
907.6068,0.103216
909.4704,0.110745
911.3341,0.119890
913.1978,0.130114
915.0614,0.134935
916.9251,0.124540
918.7888,0.103945
920.6524,0.087910
922.5161,0.080694
924.3798,0.078608
926.2435,0.078466
928.1071,0.078900
929.9708,0.079425
931.8345,0.079908
933.6981,0.080415
935.5618,0.081043
937.4255,0.081689
939.2891,0.082057
941.1528,0.082329
943.0165,0.082809
944.8801,0.083473
946.7438,0.084491
948.6075,0.085797
950.4711,0.087259
952.3348,0.088985
954.1985,0.090945
956.0622,0.093034
957.9258,0.095376
959.7895,0.097925
961.6532,0.100651
963.5168,0.103695
965.3805,0.107165
967.2442,0.111492
969.1078,0.116683
970.9715,0.122203
972.8352,0.128618
974.6988,0.138061
976.5625,0.153174
978.4262,0.177649
980.2899,0.211166
982.1535,0.224671
984.0172,0.187926
985.8809,0.140792
987.7445,0.120348
989.6082,0.117800
991.4719,0.119050
993.3355,0.120590
995.1992,0.122006
997.0629,0.123169
998.9265,0.124083
1000.7902,0.124873
1002.6539,0.125511
1004.5175,0.126129
1006.3812,0.126955
1008.2449,0.127857
1010.1086,0.128670
1011.9722,0.129455
1013.8359,0.130246
1015.6996,0.130930
1017.5632,0.131376
1019.4269,0.131542
1021.2906,0.131583
1023.1542,0.131758
1025.0179,0.132012
1026.8816,0.132137
1028.7452,0.132509
1030.6089,0.133405
1032.4726,0.134671
1034.3362,0.136304
1036.1999,0.138527
1038.0636,0.141421
1039.9273,0.145006
1041.7909,0.149193
1043.6546,0.153801
1045.5183,0.158593
1047.3819,0.162034
1049.2456,0.160908
1051.1093,0.152615
1052.9729,0.138948
1054.8366,0.125602
1056.7003,0.116539
1058.5639,0.111800
1060.4276,0.109828
1062.2913,0.109364
1064.1550,0.109896
1066.0186,0.111457
1067.8823,0.114189
1069.7460,0.118143
1071.6096,0.122887
1073.4733,0.127437
1075.3370,0.131300
1077.2006,0.134427
1079.0643,0.136774
1080.9280,0.138840
1082.7916,0.140995
1084.6553,0.143458
1086.5190,0.146536
1088.3826,0.150196
1090.2463,0.154453
1092.1100,0.159619
1093.9737,0.166088
1095.8373,0.173909
1097.7010,0.182612
1099.5647,0.191671
1101.4283,0.200833
1103.2920,0.209173
1105.1557,0.214514
1107.0193,0.214363
1108.8830,0.207039
1110.7467,0.192942
1112.6103,0.175121
1114.4740,0.157115
1116.3377,0.141149
1118.2014,0.128448
1120.0650,0.119242
1121.9287,0.113029
1123.7924,0.108987
1125.6560,0.105930
1127.5197,0.103090
1129.3834,0.100132
1131.2470,0.097276
1133.1107,0.095165
1134.9744,0.093843
1136.8380,0.093249
1138.7017,0.093515
1140.5654,0.094422
1142.4290,0.095500
1144.2927,0.096504
1146.1564,0.097286
1148.0201,0.097758
1149.8837,0.098099
1151.7474,0.098399
1153.6111,0.098631
1155.4747,0.098859
1157.3384,0.099068
1159.2021,0.099347
1161.0657,0.099886
1162.9294,0.100911
1164.7931,0.102749
1166.6567,0.105612
1168.5204,0.109358
1170.3841,0.113273
1172.2477,0.115569
1174.1114,0.113871
1175.9751,0.107600
1177.8388,0.099479
1179.7024,0.092853
1181.5661,0.088997
1183.4298,0.087414
1185.2934,0.087024
1187.1571,0.087147
1189.0208,0.087458
1190.8844,0.087682
1192.7481,0.087845
1194.6118,0.088079
1196.4754,0.088468
1198.3391,0.089032
1200.2028,0.089685
1202.0665,0.090238
1203.9301,0.090722
1205.7938,0.091302
1207.6575,0.091883
1209.5211,0.092396
1211.3848,0.092928
1213.2485,0.093472
1215.1121,0.094007
1216.9758,0.094640
1218.8395,0.095350
1220.7031,0.096081
1222.5668,0.096884
1224.4305,0.097716
1226.2941,0.098483
1228.1578,0.099206
1230.0215,0.100049
1231.8852,0.100928
1233.7488,0.101731
1235.6125,0.102562
1237.4762,0.103419
1239.3398,0.104295
1241.2035,0.105165
1243.0672,0.106024
1244.9308,0.106914
1246.7945,0.107792
1248.6582,0.108683
1250.5218,0.109629
1252.3855,0.110651
1254.2492,0.111741
1256.1129,0.112912
1257.9765,0.114252
1259.8402,0.115762
1261.7039,0.117343
1263.5675,0.118889
1265.4312,0.120230
1267.2949,0.120963
1269.1585,0.121029
1271.0222,0.121003
1272.8859,0.121124
1274.7495,0.121575
1276.6132,0.122744
1278.4769,0.124476
1280.3405,0.126622
1282.2042,0.129114
1284.0679,0.131867
1285.9316,0.135018
1287.7952,0.138741
1289.6589,0.142989
1291.5226,0.147717
1293.3862,0.153255
1295.2499,0.159822
1297.1136,0.167477
1298.9772,0.176544
1300.8409,0.187368
1302.7046,0.198533
1304.5682,0.205930
1306.4319,0.203654
1308.2956,0.186345
1310.1592,0.156666
1312.0229,0.127459
1313.8866,0.109096
1315.7503,0.102610
1317.6139,0.102973
1319.4776,0.106215
1321.3413,0.110142
1323.2049,0.114092
1325.0686,0.118215
1326.9323,0.122359
1328.7959,0.126387
1330.6596,0.129955
1332.5233,0.132717
1334.3869,0.134460
1336.2506,0.135714
1338.1143,0.137942
1339.9780,0.140913
1341.8416,0.141931
1343.7053,0.141846
1345.5690,0.142600
1347.4326,0.143989
1349.2963,0.145929
1351.1600,0.148187
1353.0236,0.150796
1354.8873,0.154184
1356.7510,0.157640
1358.6146,0.160645
1360.4783,0.164743
1362.3420,0.171626
1364.2056,0.177720
1366.0693,0.180700
1367.9330,0.185238
1369.7967,0.190751
1371.6603,0.195178
1373.5240,0.201920
1375.3877,0.209675
1377.2513,0.214518
1379.1150,0.220825
1380.9787,0.229208
1382.8423,0.237754
1384.7060,0.246927
1386.5697,0.259074
1388.4333,0.272736
1390.2970,0.279380
1392.1607,0.281402
1394.0244,0.280504
1395.8880,0.272062
1397.7517,0.258244
1399.6154,0.242747
1401.4790,0.228152
1403.3427,0.214367
1405.2064,0.194265
1407.0700,0.168857
1408.9337,0.144685
1410.7974,0.123304
1412.6610,0.108893
1414.5247,0.102785
1416.3884,0.103161
1418.2520,0.110627
1420.1157,0.123407
1421.9794,0.128823
1423.8431,0.125268
1425.7067,0.112757
1427.5704,0.099383
1429.4341,0.091336
1431.2977,0.088409
1433.1614,0.088423
1435.0251,0.090567
1436.8887,0.095897
1438.7524,0.099278
1440.6161,0.100128
1442.4797,0.102042
1444.3434,0.103839
1446.2071,0.105217
1448.0707,0.105998
1449.9344,0.103913
1451.7981,0.099571
1453.6618,0.095294
1455.5254,0.094425
1457.3891,0.100368
1459.2528,0.103350
1461.1164,0.101419
1462.9801,0.100979
1464.8438,0.101867
1466.7074,0.100690
1468.5711,0.097434
1470.4348,0.095507
1472.2984,0.096464
1474.1621,0.097936
1476.0258,0.097467
1477.8895,0.096973
1479.7531,0.096524
1481.6168,0.097090
1483.4805,0.097416
1485.3441,0.097386
1487.2078,0.098603
1489.0715,0.101945
1490.9351,0.104783
1492.7988,0.104026
1494.6625,0.103706
1496.5261,0.107095
1498.3898,0.110713
1500.2535,0.111158
1502.1171,0.110002
1503.9808,0.109212
1505.8445,0.113151
1507.7082,0.124118
1509.5718,0.123546
1511.4355,0.122113
1513.2992,0.122754
1515.1628,0.124051
1517.0265,0.126774
1518.8902,0.128416
1520.7538,0.130732
1522.6175,0.135436
1524.4812,0.135906
1526.3448,0.137548
1528.2085,0.139023
1530.0722,0.138804
1531.9359,0.140462
1533.7995,0.144899
1535.6632,0.145237
1537.5269,0.144018
1539.3905,0.149427
1541.2542,0.160353
1543.1179,0.162311
1544.9815,0.164160
1546.8452,0.165416
1548.7089,0.167041
1550.5725,0.170896
1552.4362,0.173548
1554.2999,0.175456
1556.1635,0.178207
1558.0272,0.185817
1559.8909,0.204700
1561.7546,0.201426
1563.6182,0.199078
1565.4819,0.202007
1567.3456,0.205712
1569.2092,0.211760
1571.0729,0.218451
1572.9366,0.219254
1574.8002,0.223251
1576.6639,0.233934
1578.5276,0.239453
1580.3912,0.240475
1582.2549,0.243819
1584.1186,0.246875
1585.9822,0.249166
1587.8459,0.250520
1589.7096,0.251083
1591.5733,0.250451
1593.4369,0.248967
1595.3006,0.246904
1597.1643,0.244121
1599.0279,0.240354
1600.8916,0.236580
1602.7553,0.233098
1604.6189,0.229940
1606.4826,0.227068
1608.3463,0.224476
1610.2099,0.221415
1612.0736,0.216762
1613.9373,0.210762
1615.8010,0.204048
1617.6646,0.194309
1619.5283,0.184488
1621.3920,0.176454
1623.2556,0.166561
1625.1193,0.155347
1626.9830,0.144768
1628.8466,0.132115
1630.7103,0.119673
1632.5740,0.109701
1634.4376,0.100181
1636.3013,0.089863
1638.1650,0.084039
1640.0286,0.082777
1641.8923,0.081891
1643.7560,0.082414
1645.6197,0.085088
1647.4833,0.089815
1649.3470,0.091613
1651.2107,0.093645
1653.0743,0.101374
1654.9380,0.108583
1656.8017,0.106852
1658.6653,0.106858
1660.5290,0.107142
1662.3927,0.106990
1664.2563,0.105272
1666.1200,0.102675
1667.9837,0.100459
1669.8474,0.099034
1671.7110,0.098018
1673.5747,0.098458
1675.4384,0.101662
1677.3020,0.105792
1679.1657,0.108733
1681.0294,0.113519
1682.8930,0.119459
1684.7567,0.128578
1686.6204,0.131272
1688.4840,0.129162
1690.3477,0.126839
1692.2114,0.122917
1694.0750,0.118335
1695.9387,0.113685
1697.8024,0.108256
1699.6661,0.103592
1701.5297,0.094605
1703.3934,0.086389
1705.2571,0.076706
1707.1207,0.064699
1708.9844,0.056303
1710.8481,0.050174
1712.7117,0.045207
1714.5754,0.042022
1716.4391,0.039555
1718.3027,0.038424
1720.1664,0.036994
1722.0301,0.035476
1723.8937,0.033221
1725.7574,0.030577
1727.6211,0.027954
1729.4848,0.025787
1731.3484,0.023924
1733.2121,0.022908
1735.0758,0.021549
1736.9394,0.020582
1738.8031,0.020175
1740.6668,0.019936
1742.5304,0.019493
1744.3941,0.019191
1746.2578,0.018646
1748.1214,0.018347
1749.9851,0.017866
1751.8488,0.017605
1753.7125,0.017259
1755.5761,0.017093
1757.4398,0.016892
1759.3035,0.016860
1761.1671,0.016793
1763.0308,0.016869
1764.8945,0.016558
1766.7581,0.016448
1768.6218,0.016352
1770.4855,0.016319
1772.3491,0.016319
1774.2128,0.016223
1776.0765,0.016083
1777.9401,0.016445
1779.8038,0.016523
1781.6675,0.016471
1783.5312,0.016389
1785.3948,0.016654
1787.2585,0.016639
1789.1222,0.016558
1790.9858,0.016421
1792.8495,0.016701
1794.7132,0.016633
1796.5768,0.016563
1798.4405,0.016539
1800.3042,0.016748
1802.1678,0.016975
1804.0315,0.017186
1805.8952,0.016933
1807.7589,0.016910
1809.6225,0.016990
1811.4862,0.017084
1813.3499,0.016981
1815.2135,0.016853
1817.0772,0.016723
1818.9409,0.016916
1820.8045,0.017014
1822.6682,0.017142
1824.5319,0.017066
1826.3955,0.016880
1828.2592,0.016434
1830.1229,0.016369
1831.9865,0.016218
1833.8502,0.016236
1835.7139,0.016163
1837.5776,0.016327
1839.4412,0.016281
1841.3049,0.016257
1843.1686,0.016402
1845.0322,0.016601
1846.8959,0.016519
1848.7596,0.016446
1850.6232,0.016349
1852.4869,0.016533
1854.3506,0.016857
1856.2142,0.017074
1858.0779,0.016889
1859.9416,0.017010
1861.8052,0.017108
1863.6689,0.017081
1865.5326,0.016948
1867.3963,0.016954
1869.2599,0.016778
1871.1236,0.016745
1872.9873,0.016833
1874.8509,0.016993
1876.7146,0.016620
1878.5783,0.016740
1880.4419,0.016813
1882.3056,0.016977
1884.1693,0.016889
1886.0329,0.016636
1887.8966,0.016662
1889.7603,0.016863
1891.6240,0.016888
1893.4876,0.017051
1895.3513,0.016846
1897.2150,0.016636
1899.0786,0.016546
1900.9423,0.016771
1902.8060,0.016474
1904.6696,0.016305
1906.5333,0.016369
1908.3970,0.017134
1910.2606,0.017302
1912.1243,0.017169
1913.9880,0.016776
1915.8516,0.016375
1917.7153,0.016171
1919.5790,0.016925
1921.4427,0.017061
1923.3063,0.016839
1925.1700,0.016159
1927.0337,0.016243
1928.8973,0.016127
1930.7610,0.016472
1932.6247,0.016691
1934.4883,0.016740
1936.3520,0.016070
1938.2157,0.015414
1940.0793,0.014853
1941.9430,0.014572
1943.8067,0.014498
1945.6704,0.014763
1947.5340,0.014470
1949.3977,0.014470
1951.2614,0.014013
1953.1250,0.013781
1954.9887,0.013908
1956.8524,0.013584
1958.7160,0.012233
1960.5797,0.011168
1962.4434,0.010108
1964.3070,0.008960
1966.1707,0.007701
1968.0344,0.007541
1969.8980,0.007189
1971.7617,0.007773
1973.6254,0.007719
1975.4891,0.007947
1977.3527,0.008103
1979.2164,0.009837
1981.0801,0.011061
1982.9437,0.011054
1984.8074,0.010721
1986.6711,0.011019
1988.5347,0.010370
1990.3984,0.011683
1992.2621,0.012610
1994.1257,0.012819
1995.9894,0.012471
1997.8531,0.012360
1999.7167,0.011589
2001.5804,0.011587
2003.4441,0.011594
2005.3078,0.011059
2007.1714,0.010945
2009.0351,0.010996
2010.8988,0.009223
2012.7624,0.008700
2014.6261,0.008773
2016.4898,0.009481
2018.3534,0.009743
2020.2171,0.008381
2022.0808,0.007279
2023.9444,0.007471
2025.8081,0.007944
2027.6718,0.008804
2029.5355,0.008628
2031.3991,0.008960
2033.2628,0.009510
2035.1265,0.009960
2036.9901,0.009228
2038.8538,0.010272
2040.7175,0.011384
2042.5811,0.012052
2044.4448,0.012061
2046.3085,0.013002
2048.1721,0.014204
2050.0358,0.015321
2051.8995,0.014848
2053.7631,0.015053
2055.6268,0.016013
2057.4905,0.016628
2059.3542,0.016405
2061.2178,0.016888
2063.0815,0.017287
2064.9452,0.017142
2066.8088,0.017599
2068.6725,0.019112
2070.5362,0.019218
2072.3998,0.019275
2074.2635,0.019366
2076.1272,0.019414
2077.9908,0.019530
2079.8545,0.019916
2081.7182,0.019829
2083.5819,0.020256
2085.4455,0.020501
2087.3092,0.020721
2089.1729,0.021077
2091.0365,0.021203
2092.9002,0.020279
2094.7639,0.020298
2096.6275,0.020672
2098.4912,0.021284
2100.3549,0.021872
2102.2185,0.021797
2104.0822,0.020920
2105.9459,0.020728
2107.8095,0.020572
2109.6732,0.020646
2111.5369,0.021305
2113.4006,0.022509
2115.2642,0.022892
2117.1279,0.022519
2118.9916,0.022090
2120.8552,0.021880
2122.7189,0.021226
2124.5826,0.020643
2126.4462,0.020855
2128.3099,0.021111
2130.1736,0.020559
2132.0372,0.020535
2133.9009,0.019683
2135.7646,0.018586
2137.6282,0.018262
2139.4919,0.017891
2141.3556,0.017599
2143.2193,0.017143
2145.0829,0.015706
2146.9466,0.015337
2148.8103,0.014887
2150.6739,0.014958
2152.5376,0.013615
2154.4013,0.011907
2156.2649,0.010865
2158.1286,0.010602
2159.9923,0.010093
2161.8559,0.010882
2163.7196,0.011843
2165.5833,0.013886
2167.4470,0.012247
2169.3106,0.013294
2171.1743,0.014122
2173.0380,0.014371
2174.9016,0.014827
2176.7653,0.015198
2178.6290,0.014827
2180.4926,0.015127
2182.3563,0.015993
2184.2200,0.016226
2186.0836,0.015743
2187.9473,0.016673
2189.8110,0.017140
2191.6746,0.018758
2193.5383,0.019675
2195.4020,0.019820
2197.2657,0.019752
2199.1293,0.019490
2200.9930,0.018320
2202.8567,0.018789
2204.7203,0.020104
2206.5840,0.020709
2208.4477,0.020846
2210.3113,0.021287
2212.1750,0.020405
2214.0387,0.020266
2215.9023,0.020596
2217.7660,0.020956
2219.6297,0.021696
2221.4934,0.022448
2223.3570,0.022688
2225.2207,0.022518
2227.0844,0.021830
2228.9480,0.022699
2230.8117,0.023307
2232.6754,0.023918
2234.5390,0.023918
2236.4027,0.024113
2238.2664,0.024234
2240.1300,0.024381
2241.9937,0.024467
2243.8574,0.024836
2245.7210,0.024948
2247.5847,0.024834
2249.4484,0.025021
2251.3121,0.025620
2253.1757,0.025246
2255.0394,0.025054
2256.9031,0.025799
2258.7667,0.026565
2260.6304,0.026958
2262.4941,0.027066
2264.3577,0.027406
2266.2214,0.027525
2268.0851,0.027968
2269.9487,0.028708
2271.8124,0.029059
2273.6761,0.029098
2275.5397,0.029432
2277.4034,0.030260
2279.2671,0.030347
2281.1308,0.030194
2282.9944,0.030455
2284.8581,0.031143
2286.7218,0.031666
2288.5854,0.031544
2290.4491,0.031453
2292.3128,0.031623
2294.1764,0.031500
2296.0401,0.031528
2297.9038,0.031659
2299.7674,0.031615
2301.6311,0.031634
2303.4948,0.031894
2305.3585,0.032172
2307.2221,0.032697
2309.0858,0.032429
2310.9495,0.032069
2312.8131,0.032123
2314.6768,0.032211
2316.5405,0.032326
2318.4041,0.032226
2320.2678,0.031809
2322.1315,0.031881
2323.9951,0.032212
2325.8588,0.032148
2327.7225,0.031374
2329.5861,0.030781
2331.4498,0.030335
2333.3135,0.030461
2335.1772,0.030614
2337.0408,0.030383
2338.9045,0.030288
2340.7682,0.030955
2342.6318,0.031936
2344.4955,0.032033
2346.3592,0.031200
2348.2228,0.030600
2350.0865,0.030652
2351.9502,0.030357
2353.8138,0.030044
2355.6775,0.030207
2357.5412,0.030307
2359.4049,0.030349
2361.2685,0.029791
2363.1322,0.029363
2364.9959,0.030069
2366.8595,0.030737
2368.7232,0.030795
2370.5869,0.031091
2372.4505,0.031982
2374.3142,0.032584
2376.1779,0.032644
2378.0415,0.032771
2379.9052,0.032649
2381.7689,0.032498
2383.6325,0.032567
2385.4962,0.032595
2387.3599,0.032739
2389.2236,0.032730
2391.0872,0.032660
2392.9509,0.032823
2394.8146,0.032986
2396.6782,0.032974
2398.5419,0.032922
2400.4056,0.033050
2402.2692,0.032947
2404.1329,0.033120
2405.9966,0.033416
2407.8602,0.033402
2409.7239,0.033387
2411.5876,0.033467
2413.4512,0.033549
2415.3149,0.033413
2417.1786,0.033607
2419.0423,0.034170
2420.9059,0.034406
2422.7696,0.034133
2424.6333,0.034072
2426.4969,0.034364
2428.3606,0.034350
2430.2243,0.034840
2432.0879,0.035213
2433.9516,0.034855
2435.8153,0.034621
2437.6789,0.034738
2439.5426,0.034939
2441.4063,0.035003
2443.2700,0.034916
2445.1336,0.034888
2446.9973,0.034809
2448.8610,0.034508
2450.7246,0.034306
2452.5883,0.034361
2454.4520,0.034524
2456.3156,0.034402
2458.1793,0.034654
2460.0430,0.034876
2461.9066,0.034338
2463.7703,0.034200
2465.6340,0.034307
2467.4976,0.034144
2469.3613,0.034083
2471.2250,0.034212
2473.0887,0.034349
2474.9523,0.034395
2476.8160,0.034274
2478.6797,0.034354
2480.5433,0.034517
2482.4070,0.034641
2484.2707,0.034819
2486.1343,0.034973
2487.9980,0.034973
2489.8617,0.035141
2491.7253,0.035517
2493.5890,0.035961
2495.4527,0.036391
2497.3164,0.036391
2499.1800,0.036049
2501.0437,0.036013
2502.9074,0.036273
2504.7710,0.036683
2506.6347,0.036608
2508.4984,0.036352
2510.3620,0.036694
2512.2257,0.036642
2514.0894,0.036714
2515.9530,0.036868
2517.8167,0.037030
2519.6804,0.037134
2521.5440,0.037209
2523.4077,0.037421
2525.2714,0.037793
2527.1351,0.037921
