Wavenumber,Intensity
650.4205,0.264890
652.2841,0.261205
654.1478,0.258821
656.0115,0.255031
657.8751,0.254066
659.7388,0.251857
661.6025,0.250320
663.4661,0.249628
665.3298,0.248557
667.1935,0.249661
669.0571,0.253021
670.9208,0.246864
672.7845,0.240756
674.6481,0.235977
676.5118,0.234239
678.3755,0.233213
680.2392,0.232427
682.1028,0.231312
683.9665,0.231227
685.8302,0.229748
687.6938,0.228285
689.5575,0.226552
691.4212,0.224534
693.2848,0.223609
695.1485,0.224308
697.0122,0.225420
698.8758,0.226717
700.7395,0.226557
702.6032,0.225484
704.4669,0.221043
706.3305,0.213261
708.1942,0.202760
710.0579,0.191539
711.9215,0.179683
713.7852,0.169150
715.6489,0.159649
717.5125,0.151619
719.3762,0.145474
721.2399,0.139701
723.1035,0.134340
724.9672,0.129951
726.8309,0.125540
728.6945,0.121019
730.5582,0.116907
732.4219,0.112929
734.2856,0.109135
736.1492,0.106108
738.0129,0.104858
739.8766,0.106082
741.7402,0.109277
743.6039,0.112762
745.4676,0.114267
747.3312,0.114109
749.1949,0.112726
751.0586,0.110837
752.9222,0.109148
754.7859,0.107917
756.6496,0.106920
758.5132,0.105785
760.3769,0.104871
762.2406,0.104525
764.1043,0.104443
765.9679,0.103906
767.8316,0.103564
769.6953,0.103932
771.5589,0.104284
773.4226,0.104696
775.2863,0.105477
777.1499,0.106587
779.0136,0.107786
780.8773,0.108973
782.7409,0.110262
784.6046,0.111731
786.4683,0.113707
788.3320,0.116002
790.1956,0.118074
792.0593,0.120294
793.9230,0.122891
795.7866,0.125437
797.6503,0.127955
799.5140,0.130163
801.3776,0.131782
803.2413,0.132674
805.1050,0.132345
806.9686,0.131038
808.8323,0.128933
810.6960,0.125762
812.5596,0.122273
814.4233,0.118842
816.2870,0.115056
818.1507,0.111398
820.0143,0.108378
821.8780,0.106246
823.7417,0.105029
825.6053,0.105339
827.4690,0.107499
829.3327,0.108883
831.1963,0.102571
833.0600,0.088937
834.9237,0.077527
836.7873,0.072046
838.6510,0.070085
840.5147,0.069459
842.3784,0.069158
844.2420,0.068915
846.1057,0.068726
847.9694,0.068788
849.8330,0.068873
851.6967,0.068697
853.5604,0.068618
855.4240,0.068695
857.2877,0.068915
859.1514,0.069060
861.0150,0.068988
862.8787,0.068846
864.7424,0.068921
866.6060,0.069254
868.4697,0.069575
870.3334,0.069834
872.1971,0.070080
874.0607,0.070373
875.9244,0.070918
877.7881,0.071516
879.6517,0.072064
881.5154,0.072415
883.3791,0.073022
885.2427,0.073912
887.1064,0.074645
888.9701,0.075346
890.8337,0.076201
892.6974,0.077065
894.5611,0.078178
896.4247,0.079611
898.2884,0.081255
900.1521,0.083300
902.0158,0.085819
903.8794,0.089038
905.7431,0.093240
907.6068,0.098433
909.4704,0.104826
911.3341,0.113686
913.1978,0.124813
915.0614,0.130812
916.9251,0.121255
918.7888,0.101516
920.6524,0.086356
922.5161,0.079746
924.3798,0.077995
926.2435,0.078246
928.1071,0.079051
929.9708,0.079890
931.8345,0.080949
933.6981,0.082201
935.5618,0.083515
937.4255,0.084686
939.2891,0.085685
941.1528,0.086752
943.0165,0.087918
944.8801,0.089082
946.7438,0.090334
948.6075,0.091527
950.4711,0.092771
952.3348,0.094207
954.1985,0.095743
956.0622,0.097451
957.9258,0.099170
959.7895,0.100772
961.6532,0.102558
963.5168,0.104653
965.3805,0.107216
967.2442,0.110276
969.1078,0.113764
970.9715,0.117514
972.8352,0.122022
974.6988,0.129078
976.5625,0.141017
978.4262,0.161140
980.2899,0.188910
982.1535,0.199532
984.0172,0.167927
985.8809,0.127662
987.7445,0.110408
989.6082,0.108601
991.4719,0.110418
993.3355,0.112649
995.1992,0.114750
997.0629,0.116974
998.9265,0.119220
1000.7902,0.121391
1002.6539,0.123510
1004.5175,0.125511
1006.3812,0.127407
1008.2449,0.129179
1010.1086,0.130746
1011.9722,0.132020
1013.8359,0.132911
1015.6996,0.133251
1017.5632,0.132964
1019.4269,0.132190
1021.2906,0.131230
1023.1542,0.130247
1025.0179,0.129093
1026.8816,0.128115
1028.7452,0.127648
1030.6089,0.127506
1032.4726,0.127575
1034.3362,0.127958
1036.1999,0.128935
1038.0636,0.130588
1039.9273,0.132609
1041.7909,0.135252
1043.6546,0.138622
1045.5183,0.142155
1047.3819,0.144577
1049.2456,0.143017
1051.1093,0.134886
1052.9729,0.122190
1054.8366,0.110539
1056.7003,0.103277
1058.5639,0.100045
1060.4276,0.099145
1062.2913,0.099243
1064.1550,0.099775
1066.0186,0.100569
1067.8823,0.101713
1069.7460,0.103305
1071.6096,0.105117
1073.4733,0.107005
1075.3370,0.109081
1077.2006,0.111175
1079.0643,0.113325
1080.9280,0.115727
1082.7916,0.118256
1084.6553,0.120993
1086.5190,0.124303
1088.3826,0.128145
1090.2463,0.132377
1092.1100,0.137280
1093.9737,0.143134
1095.8373,0.149814
1097.7010,0.157214
1099.5647,0.165388
1101.4283,0.174032
1103.2920,0.182186
1105.1557,0.188258
1107.0193,0.189953
1108.8830,0.185145
1110.7467,0.173770
1112.6103,0.158312
1114.4740,0.142027
1116.3377,0.127179
1118.2014,0.114982
1120.0650,0.105885
1121.9287,0.099560
1123.7924,0.095190
1125.6560,0.091896
1127.5197,0.089024
1129.3834,0.086251
1131.2470,0.083749
1133.1107,0.081685
1134.9744,0.079951
1136.8380,0.078607
1138.7017,0.077840
1140.5654,0.077501
1142.4290,0.077325
1144.2927,0.077410
1146.1564,0.077726
1148.0201,0.078077
1149.8837,0.078475
1151.7474,0.078967
1153.6111,0.079508
1155.4747,0.080202
1157.3384,0.081165
1159.2021,0.082297
1161.0657,0.083602
1162.9294,0.085305
1164.7931,0.087786
1166.6567,0.091264
1168.5204,0.095640
1170.3841,0.100468
1172.2477,0.104145
1174.1114,0.104054
1175.9751,0.099517
1177.8388,0.093026
1179.7024,0.087381
1181.5661,0.083889
1183.4298,0.082406
1185.2934,0.082158
1187.1571,0.082322
1189.0208,0.082390
1190.8844,0.082343
1192.7481,0.082240
1194.6118,0.082207
1196.4754,0.082408
1198.3391,0.082786
1200.2028,0.083216
1202.0665,0.083657
1203.9301,0.084139
1205.7938,0.084668
1207.6575,0.085197
1209.5211,0.085777
1211.3848,0.086474
1213.2485,0.087161
1215.1121,0.087765
1216.9758,0.088408
1218.8395,0.089033
1220.7031,0.089597
1222.5668,0.090248
1224.4305,0.090920
1226.2941,0.091481
1228.1578,0.091998
1230.0215,0.092547
1231.8852,0.093141
1233.7488,0.093755
1235.6125,0.094263
1237.4762,0.094789
1239.3398,0.095491
1241.2035,0.096141
1243.0672,0.096722
1244.9308,0.097395
1246.7945,0.098088
1248.6582,0.098822
1250.5218,0.099660
1252.3855,0.100563
1254.2492,0.101437
1256.1129,0.102327
1257.9765,0.103387
1259.8402,0.104650
1261.7039,0.106031
1263.5675,0.107408
1265.4312,0.108546
1267.2949,0.109178
1269.1585,0.109339
1271.0222,0.109256
1272.8859,0.109210
1274.7495,0.109518
1276.6132,0.110391
1278.4769,0.111679
1280.3405,0.113279
1282.2042,0.115250
1284.0679,0.117430
1285.9316,0.119876
1287.7952,0.122826
1289.6589,0.126202
1291.5226,0.130094
1293.3862,0.134666
1295.2499,0.139989
1297.1136,0.146298
1298.9772,0.153856
1300.8409,0.163027
1302.7046,0.173381
1304.5682,0.182231
1306.4319,0.183905
1308.2956,0.171543
1310.1592,0.145452
1312.0229,0.117590
1313.8866,0.099141
1315.7503,0.091953
1317.6139,0.091390
1319.4776,0.093608
1321.3413,0.096494
1323.2049,0.099468
1325.0686,0.102896
1326.9323,0.106465
1328.7959,0.109848
1330.6596,0.112992
1332.5233,0.115501
1334.3869,0.117154
1336.2506,0.118486
1338.1143,0.120640
1339.9780,0.123329
1341.8416,0.124102
1343.7053,0.123840
1345.5690,0.124501
1347.4326,0.125826
1349.2963,0.127458
1351.1600,0.129309
1353.0236,0.131557
1354.8873,0.134431
1356.7510,0.137332
1358.6146,0.139932
1360.4783,0.143703
1362.3420,0.150088
1364.2056,0.155674
1366.0693,0.158398
1367.9330,0.162558
1369.7967,0.167713
1371.6603,0.171934
1373.5240,0.178192
1375.3877,0.185388
1377.2513,0.189906
1379.1150,0.195640
1380.9787,0.203406
1382.8423,0.211461
1384.7060,0.220052
1386.5697,0.231506
1388.4333,0.244284
1390.2970,0.250589
1392.1607,0.253647
1394.0244,0.255061
1395.8880,0.248908
1397.7517,0.236799
1399.6154,0.222984
1401.4790,0.209582
1403.3427,0.197857
1405.2064,0.181058
1407.0700,0.158109
1408.9337,0.135352
1410.7974,0.114839
1412.6610,0.100427
1414.5247,0.093822
1416.3884,0.093746
1418.2520,0.100520
1420.1157,0.112103
1421.9794,0.116987
1423.8431,0.113742
1425.7067,0.101991
1427.5704,0.089768
1429.4341,0.083268
1431.2977,0.081458
1433.1614,0.081660
1435.0251,0.083680
1436.8887,0.088811
1438.7524,0.091830
1440.6161,0.092364
1442.4797,0.094051
1444.3434,0.095680
1446.2071,0.096986
1448.0707,0.097677
1449.9344,0.095551
1451.7981,0.091445
1453.6618,0.087429
1455.5254,0.086630
1457.3891,0.091996
1459.2528,0.094111
1461.1164,0.092007
1462.9801,0.091810
1464.8438,0.093298
1466.7074,0.092584
1468.5711,0.089649
1470.4348,0.088348
1472.2984,0.090127
1474.1621,0.092138
1476.0258,0.091900
1477.8895,0.091629
1479.7531,0.091466
1481.6168,0.092424
1483.4805,0.093038
1485.3441,0.093290
1487.2078,0.095001
1489.0715,0.098851
1490.9351,0.102009
1492.7988,0.101318
1494.6625,0.101286
1496.5261,0.105170
1498.3898,0.108880
1500.2535,0.109418
1502.1171,0.108457
1503.9808,0.107885
1505.8445,0.112382
1507.7082,0.123592
1509.5718,0.122480
1511.4355,0.120958
1513.2992,0.121587
1515.1628,0.122967
1517.0265,0.125793
1518.8902,0.127347
1520.7538,0.129812
1522.6175,0.134218
1524.4812,0.133843
1526.3448,0.135080
1528.2085,0.136450
1530.0722,0.136085
1531.9359,0.137628
1533.7995,0.141819
1535.6632,0.141856
1537.5269,0.140769
1539.3905,0.146465
1541.2542,0.155958
1543.1179,0.156559
1544.9815,0.157572
1546.8452,0.158015
1548.7089,0.159042
1550.5725,0.162140
1552.4362,0.163922
1554.2999,0.165479
1556.1635,0.168184
1558.0272,0.175358
1559.8909,0.191075
1561.7546,0.186098
1563.6182,0.183582
1565.4819,0.186211
1567.3456,0.189325
1569.2092,0.194717
1571.0729,0.200247
1572.9366,0.200361
1574.8002,0.204217
1576.6639,0.213869
1578.5276,0.217523
1580.3912,0.217841
1582.2549,0.220803
1584.1186,0.223687
1585.9822,0.225942
1587.8459,0.227331
1589.7096,0.228224
1591.5733,0.228207
1593.4369,0.227358
1595.3006,0.225819
1597.1643,0.223434
1599.0279,0.220304
1600.8916,0.217675
1602.7553,0.215147
1604.6189,0.212481
1606.4826,0.210215
1608.3463,0.208426
1610.2099,0.206138
1612.0736,0.202545
1613.9373,0.198429
1615.8010,0.194251
1617.6646,0.186403
1619.5283,0.176717
1621.3920,0.169766
1623.2556,0.161930
1625.1193,0.151990
1626.9830,0.142582
1628.8466,0.131428
1630.7103,0.119821
1632.5740,0.110357
1634.4376,0.101855
1636.3013,0.093002
1638.1650,0.086647
1640.0286,0.084344
1641.8923,0.082976
1643.7560,0.083244
1645.6197,0.085757
1647.4833,0.090287
1649.3470,0.091886
1651.2107,0.093845
1653.0743,0.101313
1654.9380,0.106858
1656.8017,0.104516
1658.6653,0.104317
1660.5290,0.104338
1662.3927,0.103567
1664.2563,0.100875
1666.1200,0.097550
1667.9837,0.094981
1669.8474,0.092947
1671.7110,0.090876
1673.5747,0.090729
1675.4384,0.093437
1677.3020,0.096957
1679.1657,0.099612
1681.0294,0.104386
1682.8930,0.110302
1684.7567,0.118669
1686.6204,0.120163
1688.4840,0.117881
1690.3477,0.115501
1692.2114,0.111536
1694.0750,0.107404
1695.9387,0.102938
1697.8024,0.096933
1699.6661,0.092554
1701.5297,0.083803
1703.3934,0.075333
1705.2571,0.066291
1707.1207,0.055181
1708.9844,0.047478
1710.8481,0.041994
1712.7117,0.037519
1714.5754,0.034684
1716.4391,0.032598
1718.3027,0.031467
1720.1664,0.029999
1722.0301,0.028671
1723.8937,0.026782
1725.7574,0.024466
1727.6211,0.022150
1729.4848,0.020240
1731.3484,0.018457
1733.2121,0.017274
1735.0758,0.016027
1736.9394,0.015555
1738.8031,0.015250
1740.6668,0.014970
1742.5304,0.014570
1744.3941,0.014295
1746.2578,0.013626
1748.1214,0.013223
1749.9851,0.013010
1751.8488,0.012926
1753.7125,0.012467
1755.5761,0.012300
1757.4398,0.012235
1759.3035,0.012202
1761.1671,0.012124
1763.0308,0.012194
1764.8945,0.011954
1766.7581,0.011943
1768.6218,0.011881
1770.4855,0.011797
1772.3491,0.011702
1774.2128,0.011889
1776.0765,0.011850
1777.9401,0.011968
1779.8038,0.012005
1781.6675,0.012211
1783.5312,0.012231
1785.3948,0.012243
1787.2585,0.012026
1789.1222,0.011990
1790.9858,0.012204
1792.8495,0.012349
1794.7132,0.012059
1796.5768,0.012077
1798.4405,0.012222
1800.3042,0.012475
1802.1678,0.012473
1804.0315,0.012547
1805.8952,0.012621
1807.7589,0.012813
1809.6225,0.012950
1811.4862,0.013034
1813.3499,0.012739
1815.2135,0.012567
1817.0772,0.012502
1818.9409,0.012651
1820.8045,0.012704
1822.6682,0.012790
1824.5319,0.012763
1826.3955,0.012732
1828.2592,0.012559
1830.1229,0.012612
1831.9865,0.012287
1833.8502,0.012153
1835.7139,0.011911
1837.5776,0.011967
1839.4412,0.012182
1841.3049,0.012333
1843.1686,0.012403
1845.0322,0.012621
1846.8959,0.012434
1848.7596,0.012490
1850.6232,0.012405
1852.4869,0.012516
1854.3506,0.012767
1856.2142,0.012900
1858.0779,0.012613
1859.9416,0.012718
1861.8052,0.012736
1863.6689,0.012529
1865.5326,0.012417
1867.3963,0.012663
1869.2599,0.012797
1871.1236,0.012696
1872.9873,0.012454
1874.8509,0.012764
1876.7146,0.012750
1878.5783,0.012535
1880.4419,0.012623
1882.3056,0.013040
1884.1693,0.012971
1886.0329,0.012729
1887.8966,0.012591
1889.7603,0.012804
1891.6240,0.012572
1893.4876,0.012556
1895.3513,0.012513
1897.2150,0.012576
1899.0786,0.012491
1900.9423,0.012613
1902.8060,0.012783
1904.6696,0.013089
1906.5333,0.012568
1908.3970,0.012368
1910.2606,0.012618
1912.1243,0.012882
1913.9880,0.012974
1915.8516,0.013164
1917.7153,0.012770
1919.5790,0.012642
1921.4427,0.012447
1923.3063,0.011994
1925.1700,0.011901
1927.0337,0.012695
1928.8973,0.012842
1930.7610,0.012660
1932.6247,0.012418
1934.4883,0.012362
1936.3520,0.011677
1938.2157,0.012098
1940.0793,0.012344
1941.9430,0.012447
1943.8067,0.010952
1945.6704,0.010192
1947.5340,0.010177
1949.3977,0.011026
1951.2614,0.011254
1953.1250,0.010681
1954.9887,0.010012
1956.8524,0.009607
1958.7160,0.008779
1960.5797,0.008986
1962.4434,0.008193
1964.3070,0.006825
1966.1707,0.005360
1968.0344,0.005297
1969.8980,0.005621
1971.7617,0.006355
1973.6254,0.005682
1975.4891,0.005280
1977.3527,0.005320
1979.2164,0.006035
1981.0801,0.005687
1982.9437,0.007106
1984.8074,0.007611
1986.6711,0.007754
1988.5347,0.008205
1990.3984,0.007998
1992.2621,0.007336
1994.1257,0.008124
1995.9894,0.008125
1997.8531,0.008597
1999.7167,0.009113
2001.5804,0.009432
2003.4441,0.009569
2005.3078,0.009632
2007.1714,0.008642
2009.0351,0.008494
2010.8988,0.007667
2012.7624,0.006520
2014.6261,0.005487
2016.4898,0.006236
2018.3534,0.005591
2020.2171,0.005350
2022.0808,0.005020
2023.9444,0.005295
2025.8081,0.005373
2027.6718,0.005968
2029.5355,0.005316
2031.3991,0.006169
2033.2628,0.007006
2035.1265,0.007401
2036.9901,0.007411
2038.8538,0.008553
2040.7175,0.009076
2042.5811,0.009294
2044.4448,0.008408
2046.3085,0.008843
2048.1721,0.010037
2050.0358,0.011409
2051.8995,0.012230
2053.7631,0.012132
2055.6268,0.012004
2057.4905,0.013175
2059.3542,0.013588
2061.2178,0.013613
2063.0815,0.013367
2064.9452,0.013948
2066.8088,0.014536
2068.6725,0.014100
2070.5362,0.014248
2072.3998,0.014882
2074.2635,0.014607
2076.1272,0.014598
2077.9908,0.015307
2079.8545,0.016276
2081.7182,0.016460
2083.5819,0.016648
2085.4455,0.016225
2087.3092,0.016029
2089.1729,0.016177
2091.0365,0.016378
2092.9002,0.015735
2094.7639,0.015850
2096.6275,0.016558
2098.4912,0.016766
2100.3549,0.016448
2102.2185,0.016209
2104.0822,0.016114
2105.9459,0.016900
2107.8095,0.017027
2109.6732,0.016551
2111.5369,0.016729
2113.4006,0.017451
2115.2642,0.017182
2117.1279,0.016749
2118.9916,0.016497
2120.8552,0.017161
2122.7189,0.017563
2124.5826,0.017166
2126.4462,0.017287
2128.3099,0.017818
2130.1736,0.017087
2132.0372,0.015594
2133.9009,0.015019
2135.7646,0.014936
2137.6282,0.014513
2139.4919,0.014364
2141.3556,0.013985
2143.2193,0.013762
2145.0829,0.013240
2146.9466,0.012973
2148.8103,0.011667
2150.6739,0.011104
2152.5376,0.010109
2154.4013,0.008535
2156.2649,0.007727
2158.1286,0.008339
2159.9923,0.007648
2161.8559,0.009524
2163.7196,0.009979
2165.5833,0.009898
2167.4470,0.009859
2169.3106,0.010291
2171.1743,0.011216
2173.0380,0.012215
2174.9016,0.011969
2176.7653,0.011681
2178.6290,0.010687
2180.4926,0.011475
2182.3563,0.012453
2184.2200,0.011977
2186.0836,0.011875
2187.9473,0.014109
2189.8110,0.014638
2191.6746,0.014486
2193.5383,0.014669
2195.4020,0.014624
2197.2657,0.014443
2199.1293,0.014646
2200.9930,0.015426
2202.8567,0.015605
2204.7203,0.015896
2206.5840,0.016504
2208.4477,0.016711
2210.3113,0.016923
2212.1750,0.016814
2214.0387,0.017164
2215.9023,0.016495
2217.7660,0.016207
2219.6297,0.015862
2221.4934,0.016836
2223.3570,0.017704
2225.2207,0.017561
2227.0844,0.017981
2228.9480,0.018369
2230.8117,0.018571
2232.6754,0.019283
2234.5390,0.019307
2236.4027,0.019649
2238.2664,0.020115
2240.1300,0.020413
2241.9937,0.020118
2243.8574,0.019986
2245.7210,0.019962
2247.5847,0.019568
2249.4484,0.019675
2251.3121,0.020772
2253.1757,0.020721
2255.0394,0.020380
2256.9031,0.020366
2258.7667,0.020962
2260.6304,0.021162
2262.4941,0.022074
2264.3577,0.022754
2266.2214,0.022538
2268.0851,0.022328
2269.9487,0.022891
2271.8124,0.023325
2273.6761,0.023683
2275.5397,0.024235
2277.4034,0.024776
2279.2671,0.024781
2281.1308,0.024736
2282.9944,0.025145
2284.8581,0.025633
2286.7218,0.025501
2288.5854,0.025653
2290.4491,0.025881
2292.3128,0.026150
2294.1764,0.026150
2296.0401,0.026047
2297.9038,0.025827
2299.7674,0.025914
2301.6311,0.026114
2303.4948,0.026661
2305.3585,0.026524
2307.2221,0.026092
2309.0858,0.026145
2310.9495,0.026176
2312.8131,0.026129
2314.6768,0.026135
2316.5405,0.026261
2318.4041,0.026343
2320.2678,0.026401
2322.1315,0.026538
2323.9951,0.026319
2325.8588,0.025851
2327.7225,0.025288
2329.5861,0.025208
2331.4498,0.025090
2333.3135,0.024991
2335.1772,0.024980
2337.0408,0.024976
2338.9045,0.024766
2340.7682,0.025082
2342.6318,0.025314
2344.4955,0.025463
2346.3592,0.025300
2348.2228,0.024956
2350.0865,0.024687
2351.9502,0.024404
2353.8138,0.024330
2355.6775,0.024389
2357.5412,0.024375
2359.4049,0.024551
2361.2685,0.024400
2363.1322,0.023976
2364.9959,0.024168
2366.8595,0.024629
2368.7232,0.025198
2370.5869,0.025969
2372.4505,0.026236
2374.3142,0.026046
2376.1779,0.025968
2378.0415,0.026254
2379.9052,0.026640
2381.7689,0.026699
2383.6325,0.026562
2385.4962,0.026610
2387.3599,0.026774
2389.2236,0.026570
2391.0872,0.026594
2392.9509,0.026912
2394.8146,0.026936
2396.6782,0.026895
2398.5419,0.026955
2400.4056,0.026996
2402.2692,0.027012
2404.1329,0.027221
2405.9966,0.027278
2407.8602,0.027177
2409.7239,0.027024
2411.5876,0.027114
2413.4512,0.027362
2415.3149,0.027495
2417.1786,0.027475
2419.0423,0.027645
2420.9059,0.027752
2422.7696,0.027756
2424.6333,0.027751
2426.4969,0.028005
2428.3606,0.028164
2430.2243,0.028119
2432.0879,0.028297
2433.9516,0.028785
2435.8153,0.028651
2437.6789,0.028256
2439.5426,0.028427
2441.4063,0.028311
2443.2700,0.028148
2445.1336,0.028499
2446.9973,0.028573
2448.8610,0.028111
2450.7246,0.028020
2452.5883,0.028195
2454.4520,0.028494
2456.3156,0.028858
2458.1793,0.028682
2460.0430,0.028305
2461.9066,0.027883
2463.7703,0.027749
2465.6340,0.027827
2467.4976,0.027878
2469.3613,0.027793
2471.2250,0.027855
2473.0887,0.027785
2474.9523,0.028000
2476.8160,0.028163
2478.6797,0.028302
2480.5433,0.028519
2482.4070,0.028637
2484.2707,0.028744
2486.1343,0.028708
2487.9980,0.028720
2489.8617,0.029092
2491.7253,0.029181
2493.5890,0.029270
2495.4527,0.029342
2497.3164,0.029531
2499.1800,0.029572
2501.0437,0.029646
2502.9074,0.029783
2504.7710,0.029794
2506.6347,0.029876
2508.4984,0.029925
2510.3620,0.029920
2512.2257,0.029732
2514.0894,0.029512
2515.9530,0.029806
2517.8167,0.030657
2519.6804,0.030890
2521.5440,0.030407
2523.4077,0.030521
2525.2714,0.030673
2527.1351,0.030714
