Wavenumber,Intensity
650.4205,0.247914
652.2841,0.241832
654.1478,0.238815
656.0115,0.233685
657.8751,0.231138
659.7388,0.230421
661.6025,0.229957
663.4661,0.228261
665.3298,0.228569
667.1935,0.230307
669.0571,0.230402
670.9208,0.226081
672.7845,0.222674
674.6481,0.220658
676.5118,0.219194
678.3755,0.216781
680.2392,0.216758
682.1028,0.215458
683.9665,0.213619
685.8302,0.212691
687.6938,0.211867
689.5575,0.211386
691.4212,0.211398
693.2848,0.210457
695.1485,0.210017
697.0122,0.209918
698.8758,0.210802
700.7395,0.211108
702.6032,0.210427
704.4669,0.206508
706.3305,0.199243
708.1942,0.189678
710.0579,0.179562
711.9215,0.169361
713.7852,0.159687
715.6489,0.151032
717.5125,0.143898
719.3762,0.136934
721.2399,0.130893
723.1035,0.126175
724.9672,0.121846
726.8309,0.117685
728.6945,0.114094
730.5582,0.110192
732.4219,0.106388
734.2856,0.102342
736.1492,0.099610
738.0129,0.098931
739.8766,0.099707
741.7402,0.101919
743.6039,0.104741
745.4676,0.106169
747.3312,0.106036
749.1949,0.105175
751.0586,0.103504
752.9222,0.101819
754.7859,0.100829
756.6496,0.099960
758.5132,0.099207
760.3769,0.098801
762.2406,0.098431
764.1043,0.097560
765.9679,0.096898
767.8316,0.096554
769.6953,0.096493
771.5589,0.096759
773.4226,0.097413
775.2863,0.098338
777.1499,0.099213
779.0136,0.100003
780.8773,0.101005
782.7409,0.102382
784.6046,0.104437
786.4683,0.106403
788.3320,0.107985
790.1956,0.109879
792.0593,0.112167
793.9230,0.114557
795.7866,0.116998
797.6503,0.119435
799.5140,0.121419
801.3776,0.122580
803.2413,0.123230
805.1050,0.123170
806.9686,0.121969
808.8323,0.119739
810.6960,0.116872
812.5596,0.113438
814.4233,0.110096
816.2870,0.106875
818.1507,0.103539
820.0143,0.100485
821.8780,0.098373
823.7417,0.097363
825.6053,0.097678
827.4690,0.099611
829.3327,0.100578
831.1963,0.094430
833.0600,0.081729
834.9237,0.071001
836.7873,0.065890
838.6510,0.064117
840.5147,0.063690
842.3784,0.063585
844.2420,0.063317
846.1057,0.063119
847.9694,0.063035
849.8330,0.062945
851.6967,0.062785
853.5604,0.062771
855.4240,0.062795
857.2877,0.062843
859.1514,0.062807
861.0150,0.062939
862.8787,0.062959
864.7424,0.062819
866.6060,0.062993
868.4697,0.063402
870.3334,0.063649
872.1971,0.063728
874.0607,0.063902
875.9244,0.064384
877.7881,0.064937
879.6517,0.065343
881.5154,0.065957
883.3791,0.066574
885.2427,0.067126
887.1064,0.067878
888.9701,0.068688
890.8337,0.069440
892.6974,0.070167
894.5611,0.071180
896.4247,0.072475
898.2884,0.073879
900.1521,0.075736
902.0158,0.078223
903.8794,0.081390
905.7431,0.085533
907.6068,0.090699
909.4704,0.096753
911.3341,0.104780
913.1978,0.114837
915.0614,0.119766
916.9251,0.110072
918.7888,0.091272
920.6524,0.077261
922.5161,0.071538
924.3798,0.070111
926.2435,0.070356
928.1071,0.071306
929.9708,0.072261
931.8345,0.073182
933.6981,0.074155
935.5618,0.075226
937.4255,0.076319
939.2891,0.077221
941.1528,0.078125
943.0165,0.079247
944.8801,0.080341
946.7438,0.081280
948.6075,0.082302
950.4711,0.083600
952.3348,0.085082
954.1985,0.086384
956.0622,0.087735
957.9258,0.089346
959.7895,0.090981
961.6532,0.092634
963.5168,0.094527
965.3805,0.096824
967.2442,0.099611
969.1078,0.102898
970.9715,0.106505
972.8352,0.110865
974.6988,0.117417
976.5625,0.128339
978.4262,0.146921
980.2899,0.172432
982.1535,0.181310
984.0172,0.151008
985.8809,0.113590
987.7445,0.098228
989.6082,0.097201
991.4719,0.098918
993.3355,0.100903
995.1992,0.102988
997.0629,0.105015
998.9265,0.106939
1000.7902,0.108916
1002.6539,0.110886
1004.5175,0.112703
1006.3812,0.114439
1008.2449,0.116088
1010.1086,0.117555
1011.9722,0.118694
1013.8359,0.119518
1015.6996,0.119991
1017.5632,0.119943
1019.4269,0.119514
1021.2906,0.118901
1023.1542,0.118291
1025.0179,0.117661
1026.8816,0.117058
1028.7452,0.116875
1030.6089,0.116992
1032.4726,0.117204
1034.3362,0.117846
1036.1999,0.118977
1038.0636,0.120500
1039.9273,0.122689
1041.7909,0.125529
1043.6546,0.128693
1045.5183,0.131982
1047.3819,0.134199
1049.2456,0.132480
1051.1093,0.124634
1052.9729,0.112514
1054.8366,0.101410
1056.7003,0.094917
1058.5639,0.092424
1060.4276,0.091745
1062.2913,0.091730
1064.1550,0.092231
1066.0186,0.093235
1067.8823,0.094517
1069.7460,0.096082
1071.6096,0.097898
1073.4733,0.099844
1075.3370,0.101832
1077.2006,0.103842
1079.0643,0.105939
1080.9280,0.108110
1082.7916,0.110472
1084.6553,0.113217
1086.5190,0.116405
1088.3826,0.119909
1090.2463,0.123916
1092.1100,0.128761
1093.9737,0.134346
1095.8373,0.140613
1097.7010,0.147675
1099.5647,0.155434
1101.4283,0.163345
1103.2920,0.170620
1105.1557,0.175798
1107.0193,0.176592
1108.8830,0.171246
1110.7467,0.159828
1112.6103,0.144864
1114.4740,0.129639
1116.3377,0.116119
1118.2014,0.105062
1120.0650,0.096787
1121.9287,0.091184
1123.7924,0.087536
1125.6560,0.084790
1127.5197,0.082270
1129.3834,0.079877
1131.2470,0.077654
1133.1107,0.075750
1134.9744,0.074214
1136.8380,0.073105
1138.7017,0.072443
1140.5654,0.072188
1142.4290,0.072156
1144.2927,0.072272
1146.1564,0.072596
1148.0201,0.072895
1149.8837,0.073135
1151.7474,0.073598
1153.6111,0.074302
1155.4747,0.075060
1157.3384,0.075805
1159.2021,0.076702
1161.0657,0.077917
1162.9294,0.079589
1164.7931,0.081929
1166.6567,0.085137
1168.5204,0.089150
1170.3841,0.093467
1172.2477,0.096598
1174.1114,0.096234
1175.9751,0.091870
1177.8388,0.085774
1179.7024,0.080599
1181.5661,0.077638
1183.4298,0.076505
1185.2934,0.076253
1187.1571,0.076328
1189.0208,0.076435
1190.8844,0.076494
1192.7481,0.076546
1194.6118,0.076610
1196.4754,0.076796
1198.3391,0.077120
1200.2028,0.077511
1202.0665,0.077944
1203.9301,0.078436
1205.7938,0.078989
1207.6575,0.079491
1209.5211,0.079984
1211.3848,0.080596
1213.2485,0.081211
1215.1121,0.081807
1216.9758,0.082457
1218.8395,0.083033
1220.7031,0.083571
1222.5668,0.084187
1224.4305,0.084800
1226.2941,0.085360
1228.1578,0.085902
1230.0215,0.086457
1231.8852,0.087015
1233.7488,0.087532
1235.6125,0.088053
1237.4762,0.088635
1239.3398,0.089275
1241.2035,0.089890
1243.0672,0.090490
1244.9308,0.091171
1246.7945,0.091849
1248.6582,0.092528
1250.5218,0.093285
1252.3855,0.094135
1254.2492,0.095023
1256.1129,0.095842
1257.9765,0.096779
1259.8402,0.097999
1261.7039,0.099248
1263.5675,0.100399
1265.4312,0.101461
1267.2949,0.102050
1269.1585,0.102067
1271.0222,0.101947
1272.8859,0.102047
1274.7495,0.102474
1276.6132,0.103273
1278.4769,0.104496
1280.3405,0.106134
1282.2042,0.107923
1284.0679,0.109898
1285.9316,0.112377
1287.7952,0.115333
1289.6589,0.118700
1291.5226,0.122574
1293.3862,0.126932
1295.2499,0.131970
1297.1136,0.137986
1298.9772,0.145092
1300.8409,0.153696
1302.7046,0.163009
1304.5682,0.169980
1306.4319,0.169491
1308.2956,0.155932
1310.1592,0.130764
1312.0229,0.105333
1313.8866,0.089288
1315.7503,0.083563
1317.6139,0.083679
1319.4776,0.086201
1321.3413,0.089278
1323.2049,0.092412
1325.0686,0.095675
1326.9323,0.098953
1328.7959,0.102130
1330.6596,0.104960
1332.5233,0.107253
1334.3869,0.108729
1336.2506,0.109777
1338.1143,0.111641
1339.9780,0.114044
1341.8416,0.114886
1343.7053,0.114868
1345.5690,0.115497
1347.4326,0.116641
1349.2963,0.118296
1351.1600,0.120176
1353.0236,0.122296
1354.8873,0.125098
1356.7510,0.127969
1358.6146,0.130461
1360.4783,0.133888
1362.3420,0.139574
1364.2056,0.144633
1366.0693,0.147203
1367.9330,0.151060
1369.7967,0.155746
1371.6603,0.159624
1373.5240,0.165462
1375.3877,0.171978
1377.2513,0.176108
1379.1150,0.181573
1380.9787,0.188663
1382.8423,0.195958
1384.7060,0.203794
1386.5697,0.214036
1388.4333,0.225548
1390.2970,0.230975
1392.1607,0.232611
1394.0244,0.232134
1395.8880,0.225307
1397.7517,0.213824
1399.6154,0.201270
1401.4790,0.189530
1403.3427,0.178801
1405.2064,0.163194
1407.0700,0.142218
1408.9337,0.121467
1410.7974,0.103092
1412.6610,0.090748
1414.5247,0.085562
1416.3884,0.086131
1418.2520,0.092866
1420.1157,0.103496
1421.9794,0.107589
1423.8431,0.104101
1425.7067,0.092977
1427.5704,0.081858
1429.4341,0.076005
1431.2977,0.074432
1433.1614,0.074776
1435.0251,0.076913
1436.8887,0.081746
1438.7524,0.084322
1440.6161,0.084779
1442.4797,0.086332
1444.3434,0.087833
1446.2071,0.089062
1448.0707,0.089499
1449.9344,0.087382
1451.7981,0.083718
1453.6618,0.080261
1455.5254,0.079814
1457.3891,0.084794
1459.2528,0.086624
1461.1164,0.084908
1462.9801,0.084861
1464.8438,0.086098
1466.7074,0.085421
1468.5711,0.082827
1470.4348,0.081676
1472.2984,0.083304
1474.1621,0.084925
1476.0258,0.084592
1477.8895,0.084497
1479.7531,0.084597
1481.6168,0.085615
1483.4805,0.086192
1485.3441,0.086467
1487.2078,0.088072
1489.0715,0.091522
1490.9351,0.094432
1492.7988,0.093923
1494.6625,0.093828
1496.5261,0.097341
1498.3898,0.100948
1500.2535,0.101505
1502.1171,0.100454
1503.9808,0.099895
1505.8445,0.104089
1507.7082,0.114356
1509.5718,0.113583
1511.4355,0.112252
1513.2992,0.112664
1515.1628,0.113778
1517.0265,0.116118
1518.8902,0.117331
1520.7538,0.119437
1522.6175,0.123576
1524.4812,0.123792
1526.3448,0.125157
1528.2085,0.126415
1530.0722,0.126109
1531.9359,0.127340
1533.7995,0.131180
1535.6632,0.131226
1537.5269,0.130020
1539.3905,0.135174
1541.2542,0.144276
1543.1179,0.145011
1544.9815,0.146093
1546.8452,0.146650
1548.7089,0.147576
1550.5725,0.150408
1552.4362,0.151973
1554.2999,0.152889
1556.1635,0.154829
1558.0272,0.161677
1559.8909,0.177122
1561.7546,0.172753
1563.6182,0.170160
1565.4819,0.172298
1567.3456,0.175046
1569.2092,0.179922
1571.0729,0.185139
1572.9366,0.185276
1574.8002,0.188574
1576.6639,0.197470
1578.5276,0.201200
1580.3912,0.201265
1582.2549,0.203672
1584.1186,0.206054
1585.9822,0.207850
1587.8459,0.208746
1589.7096,0.209030
1591.5733,0.208588
1593.4369,0.207637
1595.3006,0.205796
1597.1643,0.203267
1599.0279,0.200292
1600.8916,0.197478
1602.7553,0.194652
1604.6189,0.191881
1606.4826,0.189610
1608.3463,0.187644
1610.2099,0.185229
1612.0736,0.181677
1613.9373,0.176990
1615.8010,0.171976
1617.6646,0.164663
1619.5283,0.156571
1621.3920,0.150373
1623.2556,0.143275
1625.1193,0.134733
1626.9830,0.126444
1628.8466,0.116555
1630.7103,0.106410
1632.5740,0.097965
1634.4376,0.089870
1636.3013,0.081496
1638.1650,0.076669
1640.0286,0.075312
1641.8923,0.074556
1643.7560,0.075181
1645.6197,0.077532
1647.4833,0.081541
1649.3470,0.083102
1651.2107,0.085075
1653.0743,0.091804
1654.9380,0.097100
1656.8017,0.095067
1658.6653,0.094593
1660.5290,0.094157
1662.3927,0.093085
1664.2563,0.090536
1666.1200,0.087665
1667.9837,0.085269
1669.8474,0.083377
1671.7110,0.081856
1673.5747,0.082151
1675.4384,0.084876
1677.3020,0.088316
1679.1657,0.090899
1681.0294,0.095098
1682.8930,0.100065
1684.7567,0.107641
1686.6204,0.109251
1688.4840,0.106866
1690.3477,0.104105
1692.2114,0.100064
1694.0750,0.095640
1695.9387,0.090868
1697.8024,0.085427
1699.6661,0.081313
1701.5297,0.073216
1703.3934,0.066407
1705.2571,0.058393
1707.1207,0.048305
1708.9844,0.041562
1710.8481,0.036781
1712.7117,0.033097
1714.5754,0.030764
1716.4391,0.028513
1718.3027,0.027228
1720.1664,0.026296
1722.0301,0.025423
1723.8937,0.023653
1725.7574,0.021565
1727.6211,0.019624
1729.4848,0.018024
1731.3484,0.016500
1733.2121,0.015524
1735.0758,0.014113
1736.9394,0.013575
1738.8031,0.013637
1740.6668,0.013433
1742.5304,0.012974
1744.3941,0.012816
1746.2578,0.012429
1748.1214,0.012178
1749.9851,0.011715
1751.8488,0.011487
1753.7125,0.011236
1755.5761,0.011199
1757.4398,0.011120
1759.3035,0.011102
1761.1671,0.011127
1763.0308,0.011157
1764.8945,0.010932
1766.7581,0.010947
1768.6218,0.010854
1770.4855,0.010930
1772.3491,0.010900
1774.2128,0.010804
1776.0765,0.010759
1777.9401,0.010901
1779.8038,0.010884
1781.6675,0.011033
1783.5312,0.011082
1785.3948,0.011271
1787.2585,0.011234
1789.1222,0.011123
1790.9858,0.010997
1792.8495,0.011188
1794.7132,0.011223
1796.5768,0.011334
1798.4405,0.011495
1800.3042,0.011831
1802.1678,0.011692
1804.0315,0.011537
1805.8952,0.011583
1807.7589,0.011778
1809.6225,0.011790
1811.4862,0.011953
1813.3499,0.011834
1815.2135,0.011716
1817.0772,0.011529
1818.9409,0.011652
1820.8045,0.011678
1822.6682,0.011663
1824.5319,0.011645
1826.3955,0.011638
1828.2592,0.011413
1830.1229,0.011587
1831.9865,0.011486
1833.8502,0.011454
1835.7139,0.011418
1837.5776,0.011551
1839.4412,0.011472
1841.3049,0.011402
1843.1686,0.011227
1845.0322,0.011304
1846.8959,0.011232
1848.7596,0.011268
1850.6232,0.011203
1852.4869,0.011674
1854.3506,0.012010
1856.2142,0.011982
1858.0779,0.011899
1859.9416,0.012083
1861.8052,0.012066
1863.6689,0.011926
1865.5326,0.011851
1867.3963,0.012067
1869.2599,0.011817
1871.1236,0.011772
1872.9873,0.011870
1874.8509,0.011981
1876.7146,0.011784
1878.5783,0.011743
1880.4419,0.011868
1882.3056,0.012001
1884.1693,0.011735
1886.0329,0.011884
1887.8966,0.011948
1889.7603,0.011950
1891.6240,0.011562
1893.4876,0.011696
1895.3513,0.011875
1897.2150,0.012073
1899.0786,0.011942
1900.9423,0.011887
1902.8060,0.011958
1904.6696,0.012206
1906.5333,0.011835
1908.3970,0.011734
1910.2606,0.011904
1912.1243,0.011909
1913.9880,0.011949
1915.8516,0.012237
1917.7153,0.011819
1919.5790,0.011794
1921.4427,0.011731
1923.3063,0.011643
1925.1700,0.011396
1927.0337,0.011750
1928.8973,0.011859
1930.7610,0.012006
1932.6247,0.011725
1934.4883,0.011617
1936.3520,0.011160
1938.2157,0.011238
1940.0793,0.011055
1941.9430,0.010619
1943.8067,0.009544
1945.6704,0.010029
1947.5340,0.010419
1949.3977,0.010742
1951.2614,0.010777
1953.1250,0.010153
1954.9887,0.009583
1956.8524,0.009707
1958.7160,0.008932
1960.5797,0.008313
1962.4434,0.007252
1964.3070,0.005628
1966.1707,0.005814
1968.0344,0.005897
1969.8980,0.004318
1971.7617,0.004860
1973.6254,0.005540
1975.4891,0.005769
1977.3527,0.005270
1979.2164,0.005677
1981.0801,0.006255
1982.9437,0.007633
1984.8074,0.007563
1986.6711,0.008242
1988.5347,0.008350
1990.3984,0.008259
1992.2621,0.007427
1994.1257,0.007693
1995.9894,0.007995
1997.8531,0.008192
1999.7167,0.008530
2001.5804,0.010360
2003.4441,0.010157
2005.3078,0.009248
2007.1714,0.007956
2009.0351,0.007314
2010.8988,0.006590
2012.7624,0.006834
2014.6261,0.006521
2016.4898,0.006830
2018.3534,0.006397
2020.2171,0.005656
2022.0808,0.005181
2023.9444,0.005093
2025.8081,0.004447
2027.6718,0.005001
2029.5355,0.006398
2031.3991,0.008302
2033.2628,0.007627
2035.1265,0.007278
2036.9901,0.006640
2038.8538,0.006159
2040.7175,0.006431
2042.5811,0.007615
2044.4448,0.007823
2046.3085,0.008775
2048.1721,0.009440
2050.0358,0.010516
2051.8995,0.011746
2053.7631,0.011933
2055.6268,0.011533
2057.4905,0.011661
2059.3542,0.012068
2061.2178,0.012350
2063.0815,0.012902
2064.9452,0.013500
2066.8088,0.013085
2068.6725,0.013228
2070.5362,0.013350
2072.3998,0.013682
2074.2635,0.013756
2076.1272,0.013756
2077.9908,0.013833
2079.8545,0.014340
2081.7182,0.014571
2083.5819,0.014758
2085.4455,0.014947
2087.3092,0.015530
2089.1729,0.015560
2091.0365,0.015706
2092.9002,0.015496
2094.7639,0.015422
2096.6275,0.015515
2098.4912,0.015962
2100.3549,0.015827
2102.2185,0.015377
2104.0822,0.015606
2105.9459,0.015720
2107.8095,0.015348
2109.6732,0.016294
2111.5369,0.016735
2113.4006,0.016653
2115.2642,0.016281
2117.1279,0.015842
2118.9916,0.015848
2120.8552,0.016332
2122.7189,0.016575
2124.5826,0.016349
2126.4462,0.016018
2128.3099,0.016225
2130.1736,0.015287
2132.0372,0.014578
2133.9009,0.014009
2135.7646,0.014588
2137.6282,0.015399
2139.4919,0.014594
2141.3556,0.012994
2143.2193,0.012352
2145.0829,0.011287
2146.9466,0.012027
2148.8103,0.012288
2150.6739,0.012167
2152.5376,0.012221
2154.4013,0.010597
2156.2649,0.006447
2158.1286,0.005580
2159.9923,0.007021
2161.8559,0.007504
2163.7196,0.007254
2165.5833,0.008989
2167.4470,0.009644
2169.3106,0.009663
2171.1743,0.010033
2173.0380,0.009932
2174.9016,0.009009
2176.7653,0.010533
2178.6290,0.011779
2180.4926,0.012137
2182.3563,0.010783
2184.2200,0.011493
2186.0836,0.012972
2187.9473,0.013448
2189.8110,0.013714
2191.6746,0.013368
2193.5383,0.013520
2195.4020,0.014552
2197.2657,0.013636
2199.1293,0.012731
2200.9930,0.014254
2202.8567,0.015823
2204.7203,0.015283
2206.5840,0.015159
2208.4477,0.014766
2210.3113,0.014802
2212.1750,0.015217
2214.0387,0.015842
2215.9023,0.016538
2217.7660,0.017320
2219.6297,0.016929
2221.4934,0.015866
2223.3570,0.015546
2225.2207,0.016891
2227.0844,0.017965
2228.9480,0.018182
2230.8117,0.017439
2232.6754,0.017035
2234.5390,0.017472
2236.4027,0.018536
2238.2664,0.018589
2240.1300,0.018171
2241.9937,0.017977
2243.8574,0.018949
2245.7210,0.019404
2247.5847,0.019483
2249.4484,0.019581
2251.3121,0.019396
2253.1757,0.018768
2255.0394,0.019206
2256.9031,0.019354
2258.7667,0.019718
2260.6304,0.020281
2262.4941,0.020541
2264.3577,0.020226
2266.2214,0.021170
2268.0851,0.021603
2269.9487,0.021246
2271.8124,0.021632
2273.6761,0.022344
2275.5397,0.021979
2277.4034,0.022228
2279.2671,0.023175
2281.1308,0.024159
2282.9944,0.024267
2284.8581,0.023992
2286.7218,0.023615
2288.5854,0.023750
2290.4491,0.023993
2292.3128,0.023982
2294.1764,0.024136
2296.0401,0.024361
2297.9038,0.024320
2299.7674,0.024391
2301.6311,0.024366
2303.4948,0.024289
2305.3585,0.024668
2307.2221,0.025223
2309.0858,0.024992
2310.9495,0.024450
2312.8131,0.024418
2314.6768,0.024638
2316.5405,0.024694
2318.4041,0.024728
2320.2678,0.024716
2322.1315,0.024476
2323.9951,0.024534
2325.8588,0.024400
2327.7225,0.023905
2329.5861,0.024034
2331.4498,0.023897
2333.3135,0.023910
2335.1772,0.023881
2337.0408,0.023526
2338.9045,0.023566
2340.7682,0.023833
2342.6318,0.023840
2344.4955,0.024002
2346.3592,0.023894
2348.2228,0.023784
2350.0865,0.023574
2351.9502,0.023229
2353.8138,0.023090
2355.6775,0.023277
2357.5412,0.023611
2359.4049,0.023495
2361.2685,0.023447
2363.1322,0.023599
2364.9959,0.023394
2366.8595,0.023257
2368.7232,0.023610
2370.5869,0.024169
2372.4505,0.024489
2374.3142,0.024797
2376.1779,0.024912
2378.0415,0.024858
2379.9052,0.024748
2381.7689,0.024733
2383.6325,0.024523
2385.4962,0.024524
2387.3599,0.024611
2389.2236,0.024799
2391.0872,0.025138
2392.9509,0.025159
2394.8146,0.024891
2396.6782,0.025040
2398.5419,0.025038
2400.4056,0.025083
2402.2692,0.025109
2404.1329,0.025328
2405.9966,0.025351
2407.8602,0.025238
2409.7239,0.025047
2411.5876,0.025401
2413.4512,0.025827
2415.3149,0.025809
2417.1786,0.025793
2419.0423,0.025781
2420.9059,0.025588
2422.7696,0.025672
2424.6333,0.025989
2426.4969,0.026190
2428.3606,0.026183
2430.2243,0.026170
2432.0879,0.026366
2433.9516,0.026290
2435.8153,0.026246
2437.6789,0.026470
2439.5426,0.026519
2441.4063,0.026145
2443.2700,0.026043
2445.1336,0.026216
2446.9973,0.026313
2448.8610,0.026182
2450.7246,0.026162
2452.5883,0.026283
2454.4520,0.026167
2456.3156,0.026258
2458.1793,0.026173
2460.0430,0.026155
2461.9066,0.026563
2463.7703,0.026146
2465.6340,0.025986
2467.4976,0.025971
2469.3613,0.026003
2471.2250,0.026023
2473.0887,0.025772
2474.9523,0.025714
2476.8160,0.026077
2478.6797,0.026372
2480.5433,0.026444
2482.4070,0.026498
2484.2707,0.026629
2486.1343,0.026721
2487.9980,0.026923
2489.8617,0.026758
2491.7253,0.026631
2493.5890,0.026996
2495.4527,0.027456
2497.3164,0.027425
2499.1800,0.027612
2501.0437,0.027736
2502.9074,0.027364
2504.7710,0.027444
2506.6347,0.027597
2508.4984,0.027824
2510.3620,0.028051
2512.2257,0.027761
2514.0894,0.027915
2515.9530,0.028231
2517.8167,0.027848
2519.6804,0.027759
2521.5440,0.027940
2523.4077,0.028053
2525.2714,0.028213
2527.1351,0.028299
