Wavenumber,Intensity
650.4205,0.193912
652.2841,0.187726
654.1478,0.182612
656.0115,0.178929
657.8751,0.177282
659.7388,0.176244
661.6025,0.173660
663.4661,0.171812
665.3298,0.172858
667.1935,0.171803
669.0571,0.170274
670.9208,0.169676
672.7845,0.168456
674.6481,0.166712
676.5118,0.166266
678.3755,0.166413
680.2392,0.168351
682.1028,0.167518
683.9665,0.165142
685.8302,0.163846
687.6938,0.164606
689.5575,0.163968
691.4212,0.162319
693.2848,0.162846
695.1485,0.163980
697.0122,0.163247
698.8758,0.163618
700.7395,0.164613
702.6032,0.164505
704.4669,0.161925
706.3305,0.156786
708.1942,0.150464
710.0579,0.143655
711.9215,0.135783
713.7852,0.128696
715.6489,0.122424
717.5125,0.116693
719.3762,0.111258
721.2399,0.105876
723.1035,0.101138
724.9672,0.097512
726.8309,0.093825
728.6945,0.090353
730.5582,0.086779
732.4219,0.082916
734.2856,0.079858
736.1492,0.077472
738.0129,0.075993
739.8766,0.076789
741.7402,0.079191
743.6039,0.081108
745.4676,0.082035
747.3312,0.082458
749.1949,0.082037
751.0586,0.081006
752.9222,0.079920
754.7859,0.079254
756.6496,0.078406
758.5132,0.077589
760.3769,0.077042
762.2406,0.076181
764.1043,0.075834
765.9679,0.075991
767.8316,0.075740
769.6953,0.075435
771.5589,0.075751
773.4226,0.076504
775.2863,0.077027
777.1499,0.077918
779.0136,0.079042
780.8773,0.079857
782.7409,0.080558
784.6046,0.081654
786.4683,0.083506
788.3320,0.085696
790.1956,0.087334
792.0593,0.089012
793.9230,0.091079
795.7866,0.092814
797.6503,0.094504
799.5140,0.095955
801.3776,0.096694
803.2413,0.097080
805.1050,0.096902
806.9686,0.095778
808.8323,0.093874
810.6960,0.091442
812.5596,0.088821
814.4233,0.085871
816.2870,0.082877
818.1507,0.080189
820.0143,0.077683
821.8780,0.076022
823.7417,0.075594
825.6053,0.075987
827.4690,0.077123
829.3327,0.077558
831.1963,0.072484
833.0600,0.061994
834.9237,0.053272
836.7873,0.049473
838.6510,0.048331
840.5147,0.047811
842.3784,0.047465
844.2420,0.047457
846.1057,0.047544
847.9694,0.047445
849.8330,0.047161
851.6967,0.046985
853.5604,0.047075
855.4240,0.047073
857.2877,0.046853
859.1514,0.046778
861.0150,0.046877
862.8787,0.046800
864.7424,0.046751
866.6060,0.046778
868.4697,0.046908
870.3334,0.047162
872.1971,0.047331
874.0607,0.047493
875.9244,0.047805
877.7881,0.048031
879.6517,0.048164
881.5154,0.048476
883.3791,0.048965
885.2427,0.049371
887.1064,0.049888
888.9701,0.050405
890.8337,0.050820
892.6974,0.051536
894.5611,0.052460
896.4247,0.053338
898.2884,0.054314
900.1521,0.055640
902.0158,0.057504
903.8794,0.059944
905.7431,0.063330
907.6068,0.067535
909.4704,0.072340
911.3341,0.078073
913.1978,0.084743
915.0614,0.087629
916.9251,0.079563
918.7888,0.064941
920.6524,0.054197
922.5161,0.049597
924.3798,0.048443
926.2435,0.048511
928.1071,0.048835
929.9708,0.049351
931.8345,0.049972
933.6981,0.050563
935.5618,0.051205
937.4255,0.051980
939.2891,0.052762
941.1528,0.053391
943.0165,0.053960
944.8801,0.054642
946.7438,0.055385
948.6075,0.056125
950.4711,0.056885
952.3348,0.057804
954.1985,0.058811
956.0622,0.059777
957.9258,0.060717
959.7895,0.061601
961.6532,0.062715
963.5168,0.064119
965.3805,0.065572
967.2442,0.067404
969.1078,0.069757
970.9715,0.072295
972.8352,0.075376
974.6988,0.080358
976.5625,0.088748
978.4262,0.102835
980.2899,0.122322
982.1535,0.129166
984.0172,0.105427
985.8809,0.075201
987.7445,0.061965
989.6082,0.060293
991.4719,0.061098
993.3355,0.062143
995.1992,0.063240
997.0629,0.064355
998.9265,0.065565
1000.7902,0.066748
1002.6539,0.067778
1004.5175,0.068795
1006.3812,0.069809
1008.2449,0.070835
1010.1086,0.071786
1011.9722,0.072506
1013.8359,0.073095
1015.6996,0.073529
1017.5632,0.073754
1019.4269,0.074033
1021.2906,0.074508
1023.1542,0.074911
1025.0179,0.075206
1026.8816,0.075608
1028.7452,0.076307
1030.6089,0.077081
1032.4726,0.078006
1034.3362,0.079444
1036.1999,0.081192
1038.0636,0.083135
1039.9273,0.085466
1041.7909,0.088248
1043.6546,0.091316
1045.5183,0.094432
1047.3819,0.096768
1049.2456,0.096206
1051.1093,0.090932
1052.9729,0.082331
1054.8366,0.074209
1056.7003,0.069207
1058.5639,0.067202
1060.4276,0.066839
1062.2913,0.067121
1064.1550,0.067839
1066.0186,0.068972
1067.8823,0.070185
1069.7460,0.071516
1071.6096,0.073062
1073.4733,0.074742
1075.3370,0.076428
1077.2006,0.078204
1079.0643,0.080187
1080.9280,0.082356
1082.7916,0.084759
1084.6553,0.087355
1086.5190,0.090191
1088.3826,0.093455
1090.2463,0.097167
1092.1100,0.101309
1093.9737,0.105884
1095.8373,0.110977
1097.7010,0.116656
1099.5647,0.122724
1101.4283,0.128675
1103.2920,0.133903
1105.1557,0.137478
1107.0193,0.137741
1108.8830,0.133261
1110.7467,0.124177
1112.6103,0.112464
1114.4740,0.100514
1116.3377,0.089759
1118.2014,0.081044
1120.0650,0.074741
1121.9287,0.070497
1123.7924,0.067694
1125.6560,0.065639
1127.5197,0.063759
1129.3834,0.061848
1131.2470,0.060039
1133.1107,0.058464
1134.9744,0.057127
1136.8380,0.056205
1138.7017,0.055717
1140.5654,0.055537
1142.4290,0.055563
1144.2927,0.055597
1146.1564,0.055652
1148.0201,0.055839
1149.8837,0.056149
1151.7474,0.056586
1153.6111,0.057090
1155.4747,0.057785
1157.3384,0.058750
1159.2021,0.059868
1161.0657,0.061217
1162.9294,0.062934
1164.7931,0.065178
1166.6567,0.068022
1168.5204,0.071315
1170.3841,0.074761
1172.2477,0.077132
1174.1114,0.076726
1175.9751,0.073127
1177.8388,0.068029
1179.7024,0.063790
1181.5661,0.061398
1183.4298,0.060451
1185.2934,0.060239
1187.1571,0.060225
1189.0208,0.060194
1190.8844,0.060165
1192.7481,0.060091
1194.6118,0.060024
1196.4754,0.060070
1198.3391,0.060224
1200.2028,0.060521
1202.0665,0.060931
1203.9301,0.061306
1205.7938,0.061548
1207.6575,0.061799
1209.5211,0.062166
1211.3848,0.062597
1213.2485,0.063007
1215.1121,0.063322
1216.9758,0.063654
1218.8395,0.064115
1220.7031,0.064518
1222.5668,0.064835
1224.4305,0.065235
1226.2941,0.065655
1228.1578,0.066093
1230.0215,0.066466
1231.8852,0.066830
1233.7488,0.067320
1235.6125,0.067741
1237.4762,0.068176
1239.3398,0.068733
1241.2035,0.069225
1243.0672,0.069739
1244.9308,0.070386
1246.7945,0.071006
1248.6582,0.071605
1250.5218,0.072277
1252.3855,0.072980
1254.2492,0.073703
1256.1129,0.074538
1257.9765,0.075458
1259.8402,0.076403
1261.7039,0.077396
1263.5675,0.078397
1265.4312,0.079222
1267.2949,0.079686
1269.1585,0.079675
1271.0222,0.079421
1272.8859,0.079432
1274.7495,0.079876
1276.6132,0.080644
1278.4769,0.081621
1280.3405,0.082840
1282.2042,0.084367
1284.0679,0.086156
1285.9316,0.088214
1287.7952,0.090530
1289.6589,0.093076
1291.5226,0.096127
1293.3862,0.099762
1295.2499,0.103935
1297.1136,0.108829
1298.9772,0.114493
1300.8409,0.121073
1302.7046,0.127958
1304.5682,0.132581
1306.4319,0.131079
1308.2956,0.119939
1310.1592,0.100572
1312.0229,0.081111
1313.8866,0.068709
1315.7503,0.064299
1317.6139,0.064462
1319.4776,0.066560
1321.3413,0.069109
1323.2049,0.071665
1325.0686,0.074352
1326.9323,0.076945
1328.7959,0.079383
1330.6596,0.081592
1332.5233,0.083321
1334.3869,0.084518
1336.2506,0.085499
1338.1143,0.086773
1339.9780,0.088291
1341.8416,0.089015
1343.7053,0.089338
1345.5690,0.090111
1347.4326,0.091152
1349.2963,0.092431
1351.1600,0.093953
1353.0236,0.095800
1354.8873,0.098048
1356.7510,0.100354
1358.6146,0.102511
1360.4783,0.105185
1362.3420,0.108950
1364.2056,0.112407
1366.0693,0.114925
1367.9330,0.118211
1369.7967,0.121879
1371.6603,0.125104
1373.5240,0.129105
1375.3877,0.133419
1377.2513,0.136841
1379.1150,0.141162
1380.9787,0.146482
1382.8423,0.152104
1384.7060,0.158098
1386.5697,0.165050
1388.4333,0.172413
1390.2970,0.176958
1392.1607,0.178943
1394.0244,0.177854
1395.8880,0.171679
1397.7517,0.163095
1399.6154,0.153395
1401.4790,0.144607
1403.3427,0.136550
1405.2064,0.123834
1407.0700,0.107787
1408.9337,0.092507
1410.7974,0.078415
1412.6610,0.068580
1414.5247,0.064456
1416.3884,0.064806
1418.2520,0.069139
1420.1157,0.076743
1421.9794,0.081054
1423.8431,0.079294
1425.7067,0.071174
1427.5704,0.062604
1429.4341,0.057248
1431.2977,0.055343
1433.1614,0.055764
1435.0251,0.057286
1436.8887,0.060096
1438.7524,0.062231
1440.6161,0.063405
1442.4797,0.064970
1444.3434,0.066384
1446.2071,0.067286
1448.0707,0.067339
1449.9344,0.065972
1451.7981,0.063781
1453.6618,0.061500
1455.5254,0.060728
1457.3891,0.062779
1459.2528,0.064571
1461.1164,0.064779
1462.9801,0.065250
1464.8438,0.065694
1466.7074,0.065015
1468.5711,0.063761
1470.4348,0.063168
1472.2984,0.063503
1474.1621,0.063964
1476.0258,0.063953
1477.8895,0.063994
1479.7531,0.064193
1481.6168,0.064806
1483.4805,0.065268
1485.3441,0.065752
1487.2078,0.066720
1489.0715,0.068362
1490.9351,0.069823
1492.7988,0.070002
1494.6625,0.070324
1496.5261,0.072106
1498.3898,0.073913
1500.2535,0.074582
1502.1171,0.074664
1503.9808,0.075043
1505.8445,0.077137
1507.7082,0.081183
1509.5718,0.081467
1511.4355,0.081961
1513.2992,0.083071
1515.1628,0.084264
1517.0265,0.085707
1518.8902,0.086794
1520.7538,0.088103
1522.6175,0.089991
1524.4812,0.090682
1526.3448,0.091971
1528.2085,0.092923
1530.0722,0.093576
1531.9359,0.095003
1533.7995,0.096919
1535.6632,0.097510
1537.5269,0.098321
1539.3905,0.101338
1541.2542,0.105548
1543.1179,0.107018
1544.9815,0.108664
1546.8452,0.110171
1548.7089,0.112066
1550.5725,0.114688
1552.4362,0.116800
1554.2999,0.118695
1556.1635,0.121050
1558.0272,0.124631
1559.8909,0.130758
1561.7546,0.131020
1563.6182,0.131914
1565.4819,0.134052
1567.3456,0.136640
1569.2092,0.139916
1571.0729,0.143066
1572.9366,0.144909
1574.8002,0.148012
1576.6639,0.152395
1578.5276,0.154895
1580.3912,0.156497
1582.2549,0.158666
1584.1186,0.160459
1585.9822,0.161897
1587.8459,0.162529
1589.7096,0.162516
1591.5733,0.161988
1593.4369,0.160955
1595.3006,0.159348
1597.1643,0.157390
1599.0279,0.155132
1600.8916,0.152691
1602.7553,0.150099
1604.6189,0.147834
1606.4826,0.146028
1608.3463,0.144080
1610.2099,0.141851
1612.0736,0.139177
1613.9373,0.135927
1615.8010,0.131176
1617.6646,0.123091
1619.5283,0.117179
1621.3920,0.113140
1623.2556,0.106473
1625.1193,0.098826
1626.9830,0.092420
1628.8466,0.084398
1630.7103,0.076572
1632.5740,0.070497
1634.4376,0.063882
1636.3013,0.055418
1638.1650,0.051427
1640.0286,0.051176
1641.8923,0.050930
1643.7560,0.051767
1645.6197,0.053231
1647.4833,0.055275
1649.3470,0.057491
1651.2107,0.059889
1653.0743,0.062736
1654.9380,0.065679
1656.8017,0.066897
1658.6653,0.068313
1660.5290,0.069002
1662.3927,0.068369
1664.2563,0.066862
1666.1200,0.065845
1667.9837,0.064698
1669.8474,0.062876
1671.7110,0.061827
1673.5747,0.062679
1675.4384,0.064529
1677.3020,0.067211
1679.1657,0.070191
1681.0294,0.074124
1682.8930,0.077710
1684.7567,0.081194
1686.6204,0.082812
1688.4840,0.082889
1690.3477,0.081584
1692.2114,0.079383
1694.0750,0.076957
1695.9387,0.073118
1697.8024,0.068613
1699.6661,0.065757
1701.5297,0.058866
1703.3934,0.053967
1705.2571,0.047916
1707.1207,0.039433
1708.9844,0.033953
1710.8481,0.030192
1712.7117,0.027140
1714.5754,0.025166
1716.4391,0.023137
1718.3027,0.021531
1720.1664,0.020640
1722.0301,0.020163
1723.8937,0.018945
1725.7574,0.017223
1727.6211,0.015548
1729.4848,0.014219
1731.3484,0.012896
1733.2121,0.011742
1735.0758,0.010160
1736.9394,0.009977
1738.8031,0.010121
1740.6668,0.009944
1742.5304,0.009574
1744.3941,0.009412
1746.2578,0.009185
1748.1214,0.009046
1749.9851,0.008537
1751.8488,0.008225
1753.7125,0.008121
1755.5761,0.008236
1757.4398,0.008185
1759.3035,0.008250
1761.1671,0.008215
1763.0308,0.008200
1764.8945,0.008158
1766.7581,0.008226
1768.6218,0.008107
1770.4855,0.008051
1772.3491,0.007902
1774.2128,0.007879
1776.0765,0.007880
1777.9401,0.008078
1779.8038,0.008028
1781.6675,0.007929
1783.5312,0.008072
1785.3948,0.008330
1787.2585,0.008301
1789.1222,0.008346
1790.9858,0.008367
1792.8495,0.008282
1794.7132,0.008063
1796.5768,0.008293
1798.4405,0.008485
1800.3042,0.008449
1802.1678,0.008320
1804.0315,0.008421
1805.8952,0.008532
1807.7589,0.008838
1809.6225,0.008988
1811.4862,0.008980
1813.3499,0.008823
1815.2135,0.008745
1817.0772,0.008515
1818.9409,0.008611
1820.8045,0.008879
1822.6682,0.009072
1824.5319,0.008897
1826.3955,0.008725
1828.2592,0.008473
1830.1229,0.008358
1831.9865,0.008360
1833.8502,0.008571
1835.7139,0.008401
1837.5776,0.008308
1839.4412,0.008301
1841.3049,0.008368
1843.1686,0.008465
1845.0322,0.008601
1846.8959,0.008537
1848.7596,0.008674
1850.6232,0.008719
1852.4869,0.008968
1854.3506,0.008997
1856.2142,0.009078
1858.0779,0.009026
1859.9416,0.009036
1861.8052,0.008929
1863.6689,0.008910
1865.5326,0.009144
1867.3963,0.009169
1869.2599,0.008787
1871.1236,0.008874
1872.9873,0.008879
1874.8509,0.008824
1876.7146,0.008994
1878.5783,0.009281
1880.4419,0.009387
1882.3056,0.009352
1884.1693,0.009210
1886.0329,0.009212
1887.8966,0.008782
1889.7603,0.008613
1891.6240,0.008829
1893.4876,0.009456
1895.3513,0.009345
1897.2150,0.008940
1899.0786,0.008847
1900.9423,0.008879
1902.8060,0.008995
1904.6696,0.009276
1906.5333,0.009417
1908.3970,0.009643
1910.2606,0.009319
1912.1243,0.009165
1913.9880,0.008890
1915.8516,0.009110
1917.7153,0.009123
1919.5790,0.008721
1921.4427,0.008869
1923.3063,0.008980
1925.1700,0.008789
1927.0337,0.009041
1928.8973,0.009131
1930.7610,0.009610
1932.6247,0.009420
1934.4883,0.008925
1936.3520,0.008688
1938.2157,0.009129
1940.0793,0.009160
1941.9430,0.008766
1943.8067,0.008285
1945.6704,0.008078
1947.5340,0.007749
1949.3977,0.007552
1951.2614,0.007616
1953.1250,0.007905
1954.9887,0.007519
1956.8524,0.007082
1958.7160,0.006812
1960.5797,0.006562
1962.4434,0.005569
1964.3070,0.004982
1966.1707,0.004909
1968.0344,0.005145
1969.8980,0.003965
1971.7617,0.004152
1973.6254,0.004426
1975.4891,0.004704
1977.3527,0.005395
1979.2164,0.006049
1981.0801,0.005417
1982.9437,0.005653
1984.8074,0.006643
1986.6711,0.007732
1988.5347,0.008152
1990.3984,0.007941
1992.2621,0.007535
1994.1257,0.008202
1995.9894,0.007984
1997.8531,0.008237
1999.7167,0.008023
2001.5804,0.007200
2003.4441,0.006031
2005.3078,0.005771
2007.1714,0.005652
2009.0351,0.005886
2010.8988,0.005763
2012.7624,0.006175
2014.6261,0.005985
2016.4898,0.006456
2018.3534,0.005994
2020.2171,0.005866
2022.0808,0.006336
2023.9444,0.006123
2025.8081,0.005170
2027.6718,0.005192
2029.5355,0.004379
2031.3991,0.005056
2033.2628,0.006243
2035.1265,0.006353
2036.9901,0.006011
2038.8538,0.007415
2040.7175,0.007785
2042.5811,0.007016
2044.4448,0.007086
2046.3085,0.007933
2048.1721,0.008998
2050.0358,0.009573
2051.8995,0.008943
2053.7631,0.009659
2055.6268,0.009617
2057.4905,0.009121
2059.3542,0.009706
2061.2178,0.010502
2063.0815,0.009784
2064.9452,0.009410
2066.8088,0.010214
2068.6725,0.010845
2070.5362,0.010768
2072.3998,0.011410
2074.2635,0.011657
2076.1272,0.011885
2077.9908,0.012180
2079.8545,0.012173
2081.7182,0.012252
2083.5819,0.012646
2085.4455,0.012209
2087.3092,0.012253
2089.1729,0.012589
2091.0365,0.012739
2092.9002,0.012404
2094.7639,0.012157
2096.6275,0.012444
2098.4912,0.012891
2100.3549,0.013147
2102.2185,0.013272
2104.0822,0.013027
2105.9459,0.012559
2107.8095,0.012418
2109.6732,0.012626
2111.5369,0.013143
2113.4006,0.013841
2115.2642,0.013380
2117.1279,0.013314
2118.9916,0.013387
2120.8552,0.013413
2122.7189,0.013372
2124.5826,0.013642
2126.4462,0.013352
2128.3099,0.012482
2130.1736,0.011766
2132.0372,0.011580
2133.9009,0.011304
2135.7646,0.011616
2137.6282,0.011632
2139.4919,0.011803
2141.3556,0.011906
2143.2193,0.011217
2145.0829,0.009901
2146.9466,0.010168
2148.8103,0.010217
2150.6739,0.010716
2152.5376,0.009689
2154.4013,0.007417
2156.2649,0.005432
2158.1286,0.006239
2159.9923,0.007267
2161.8559,0.007475
2163.7196,0.008011
2165.5833,0.008775
2167.4470,0.008757
2169.3106,0.009053
2171.1743,0.009295
2173.0380,0.009415
2174.9016,0.008897
2176.7653,0.009073
2178.6290,0.009486
2180.4926,0.009698
2182.3563,0.009422
2184.2200,0.010019
2186.0836,0.010293
2187.9473,0.010617
2189.8110,0.010837
2191.6746,0.010881
2193.5383,0.010276
2195.4020,0.010907
2197.2657,0.011515
2199.1293,0.011473
2200.9930,0.011475
2202.8567,0.012365
2204.7203,0.012053
2206.5840,0.011985
2208.4477,0.012228
2210.3113,0.012215
2212.1750,0.012196
2214.0387,0.012697
2215.9023,0.013382
2217.7660,0.014572
2219.6297,0.014155
2221.4934,0.013401
2223.3570,0.014048
2225.2207,0.014581
2227.0844,0.014081
2228.9480,0.013596
2230.8117,0.014197
2232.6754,0.014574
2234.5390,0.013859
2236.4027,0.014316
2238.2664,0.014557
2240.1300,0.014725
2241.9937,0.015234
2243.8574,0.015135
2245.7210,0.014750
2247.5847,0.015095
2249.4484,0.015817
2251.3121,0.016058
2253.1757,0.015631
2255.0394,0.016297
2256.9031,0.016800
2258.7667,0.016625
2260.6304,0.016692
2262.4941,0.017065
2264.3577,0.016988
2266.2214,0.016706
2268.0851,0.016762
2269.9487,0.017361
2271.8124,0.017789
2273.6761,0.017854
2275.5397,0.018098
2277.4034,0.018218
2279.2671,0.018601
2281.1308,0.019164
2282.9944,0.019155
2284.8581,0.019086
2286.7218,0.019276
2288.5854,0.019648
2290.4491,0.019802
2292.3128,0.019478
2294.1764,0.019411
2296.0401,0.019467
2297.9038,0.019315
2299.7674,0.019336
2301.6311,0.019503
2303.4948,0.019680
2305.3585,0.019655
2307.2221,0.019954
2309.0858,0.020485
2310.9495,0.020226
2312.8131,0.019644
2314.6768,0.019644
2316.5405,0.019796
2318.4041,0.019825
2320.2678,0.019694
2322.1315,0.019654
2323.9951,0.019621
2325.8588,0.019342
2327.7225,0.018987
2329.5861,0.018823
2331.4498,0.018708
2333.3135,0.018733
2335.1772,0.018642
2337.0408,0.018526
2338.9045,0.018863
2340.7682,0.018982
2342.6318,0.019100
2344.4955,0.019077
2346.3592,0.018961
2348.2228,0.018751
2350.0865,0.018389
2351.9502,0.018405
2353.8138,0.018476
2355.6775,0.018441
2357.5412,0.018188
2359.4049,0.018069
2361.2685,0.018061
2363.1322,0.018151
2364.9959,0.018236
2366.8595,0.018570
2368.7232,0.018552
2370.5869,0.018980
2372.4505,0.019360
2374.3142,0.019355
2376.1779,0.019537
2378.0415,0.019580
2379.9052,0.019668
2381.7689,0.019716
2383.6325,0.019573
2385.4962,0.019528
2387.3599,0.019577
2389.2236,0.019782
2391.0872,0.019846
2392.9509,0.019912
2394.8146,0.019846
2396.6782,0.019753
2398.5419,0.019735
2400.4056,0.020102
2402.2692,0.020113
2404.1329,0.019864
2405.9966,0.020091
2407.8602,0.020510
2409.7239,0.020524
2411.5876,0.020256
2413.4512,0.020316
2415.3149,0.020495
2417.1786,0.020643
2419.0423,0.020690
2420.9059,0.020597
2422.7696,0.020873
2424.6333,0.021158
2426.4969,0.021230
2428.3606,0.020972
2430.2243,0.020943
2432.0879,0.020995
2433.9516,0.021281
2435.8153,0.021228
2437.6789,0.021136
2439.5426,0.021082
2441.4063,0.021059
2443.2700,0.021057
2445.1336,0.021352
2446.9973,0.021212
2448.8610,0.021033
2450.7246,0.021188
2452.5883,0.021201
2454.4520,0.020827
2456.3156,0.020632
2458.1793,0.020853
2460.0430,0.020915
2461.9066,0.020807
2463.7703,0.020988
2465.6340,0.021092
2467.4976,0.020972
2469.3613,0.020732
2471.2250,0.020744
2473.0887,0.020668
2474.9523,0.020550
2476.8160,0.020937
2478.6797,0.021030
2480.5433,0.021150
2482.4070,0.021465
2484.2707,0.021398
2486.1343,0.021318
2487.9980,0.021458
2489.8617,0.021662
2491.7253,0.021586
2493.5890,0.021354
2495.4527,0.021544
2497.3164,0.021811
2499.1800,0.021811
2501.0437,0.022009
2502.9074,0.021965
2504.7710,0.021690
2506.6347,0.022032
2508.4984,0.022744
2510.3620,0.022732
2512.2257,0.022499
2514.0894,0.022255
2515.9530,0.022071
2517.8167,0.022443
2519.6804,0.022631
2521.5440,0.022697
2523.4077,0.023088
2525.2714,0.023079
2527.1351,0.022913
