Wavenumber,Intensity
650.4205,0.181178
652.2841,0.178329
654.1478,0.175884
656.0115,0.169424
657.8751,0.164324
659.7388,0.161015
661.6025,0.158918
663.4661,0.155444
665.3298,0.153489
667.1935,0.153113
669.0571,0.153383
670.9208,0.152223
672.7845,0.151798
674.6481,0.151889
676.5118,0.152080
678.3755,0.151594
680.2392,0.153484
682.1028,0.155320
683.9665,0.156061
685.8302,0.155591
687.6938,0.154884
689.5575,0.154172
691.4212,0.154668
693.2848,0.155017
695.1485,0.155301
697.0122,0.155016
698.8758,0.157137
700.7395,0.158851
702.6032,0.157576
704.4669,0.154080
706.3305,0.150252
708.1942,0.142988
710.0579,0.134655
711.9215,0.128192
713.7852,0.121935
715.6489,0.114941
717.5125,0.108606
719.3762,0.103755
721.2399,0.099367
723.1035,0.094559
724.9672,0.090819
726.8309,0.086989
728.6945,0.083437
730.5582,0.080321
732.4219,0.077078
734.2856,0.074302
736.1492,0.072727
738.0129,0.071438
739.8766,0.071338
741.7402,0.073565
743.6039,0.075952
745.4676,0.077286
747.3312,0.077406
749.1949,0.076732
751.0586,0.075789
752.9222,0.075085
754.7859,0.074599
756.6496,0.074059
758.5132,0.073399
760.3769,0.072802
762.2406,0.072444
764.1043,0.072063
765.9679,0.071890
767.8316,0.072115
769.6953,0.071856
771.5589,0.071777
773.4226,0.072278
775.2863,0.072683
777.1499,0.073134
779.0136,0.073665
780.8773,0.074491
782.7409,0.075608
784.6046,0.076803
786.4683,0.078317
788.3320,0.079894
790.1956,0.081371
792.0593,0.083163
793.9230,0.085043
795.7866,0.086684
797.6503,0.087905
799.5140,0.088594
801.3776,0.088916
803.2413,0.089413
805.1050,0.089766
806.9686,0.088905
808.8323,0.087045
810.6960,0.084903
812.5596,0.081993
814.4233,0.078767
816.2870,0.076111
818.1507,0.073747
820.0143,0.071723
821.8780,0.070244
823.7417,0.069465
825.6053,0.070076
827.4690,0.071835
829.3327,0.073019
831.1963,0.069266
833.0600,0.060527
834.9237,0.053055
836.7873,0.049842
838.6510,0.048826
840.5147,0.048590
842.3784,0.048369
844.2420,0.048013
846.1057,0.047724
847.9694,0.047041
849.8330,0.045130
851.6967,0.042378
853.5604,0.039817
855.4240,0.038352
857.2877,0.037654
859.1514,0.037222
861.0150,0.036901
862.8787,0.036481
864.7424,0.036240
866.6060,0.036231
868.4697,0.036411
870.3334,0.036678
872.1971,0.036854
874.0607,0.036857
875.9244,0.037137
877.7881,0.037792
879.6517,0.038604
881.5154,0.039527
883.3791,0.040385
885.2427,0.040666
887.1064,0.040588
888.9701,0.040467
890.8337,0.040125
892.6974,0.039889
894.5611,0.040079
896.4247,0.040544
898.2884,0.041510
900.1521,0.042946
902.0158,0.044663
903.8794,0.046877
905.7431,0.049997
907.6068,0.053895
909.4704,0.058208
911.3341,0.063111
913.1978,0.068641
915.0614,0.070947
916.9251,0.064297
918.7888,0.051799
920.6524,0.041926
922.5161,0.037458
924.3798,0.036237
926.2435,0.036182
928.1071,0.036422
929.9708,0.036653
931.8345,0.037016
933.6981,0.037603
935.5618,0.038298
937.4255,0.038993
939.2891,0.039791
941.1528,0.040705
943.0165,0.041614
944.8801,0.042271
946.7438,0.042614
948.6075,0.042843
950.4711,0.043320
952.3348,0.043934
954.1985,0.044608
956.0622,0.045451
957.9258,0.046463
959.7895,0.047541
961.6532,0.048741
963.5168,0.050156
965.3805,0.051736
967.2442,0.053762
969.1078,0.056315
970.9715,0.058942
972.8352,0.062052
974.6988,0.067106
976.5625,0.075570
978.4262,0.089708
980.2899,0.108537
982.1535,0.114772
984.0172,0.092789
985.8809,0.065428
987.7445,0.053670
989.6082,0.052262
991.4719,0.051970
993.3355,0.050547
995.1992,0.049103
997.0629,0.048385
998.9265,0.048137
1000.7902,0.048197
1002.6539,0.048571
1004.5175,0.049099
1006.3812,0.049767
1008.2449,0.050520
1010.1086,0.051301
1011.9722,0.052108
1013.8359,0.052979
1015.6996,0.053879
1017.5632,0.054948
1019.4269,0.056101
1021.2906,0.057234
1023.1542,0.058438
1025.0179,0.059641
1026.8816,0.060875
1028.7452,0.062164
1030.6089,0.063515
1032.4726,0.065058
1034.3362,0.066865
1036.1999,0.068966
1038.0636,0.071240
1039.9273,0.073683
1041.7909,0.076727
1043.6546,0.080262
1045.5183,0.083955
1047.3819,0.086796
1049.2456,0.086908
1051.1093,0.082923
1052.9729,0.075847
1054.8366,0.068940
1056.7003,0.064620
1058.5639,0.062996
1060.4276,0.062741
1062.2913,0.062476
1064.1550,0.062145
1066.0186,0.062383
1067.8823,0.063284
1069.7460,0.064621
1071.6096,0.066120
1073.4733,0.067802
1075.3370,0.069716
1077.2006,0.071647
1079.0643,0.073661
1080.9280,0.075982
1082.7916,0.078687
1084.6553,0.081568
1086.5190,0.084577
1088.3826,0.087825
1090.2463,0.091508
1092.1100,0.095642
1093.9737,0.100200
1095.8373,0.105248
1097.7010,0.110764
1099.5647,0.116597
1101.4283,0.122334
1103.2920,0.127313
1105.1557,0.130819
1107.0193,0.131235
1108.8830,0.127199
1110.7467,0.119117
1112.6103,0.108911
1114.4740,0.098246
1116.3377,0.088493
1118.2014,0.080664
1120.0650,0.074989
1121.9287,0.071038
1123.7924,0.068485
1125.6560,0.066809
1127.5197,0.065243
1129.3834,0.063498
1131.2470,0.061685
1133.1107,0.059933
1134.9744,0.058182
1136.8380,0.056738
1138.7017,0.055788
1140.5654,0.055220
1142.4290,0.054983
1144.2927,0.054970
1146.1564,0.055129
1148.0201,0.055446
1149.8837,0.055936
1151.7474,0.056768
1153.6111,0.057924
1155.4747,0.059038
1157.3384,0.059846
1159.2021,0.060178
1161.0657,0.060239
1162.9294,0.060800
1164.7931,0.062258
1166.6567,0.064353
1168.5204,0.066971
1170.3841,0.069792
1172.2477,0.071754
1174.1114,0.071518
1175.9751,0.068561
1177.8388,0.064402
1179.7024,0.060950
1181.5661,0.058996
1183.4298,0.058273
1185.2934,0.058101
1187.1571,0.058019
1189.0208,0.057671
1190.8844,0.057205
1192.7481,0.056874
1194.6118,0.056637
1196.4754,0.056543
1198.3391,0.056639
1200.2028,0.056888
1202.0665,0.057167
1203.9301,0.057270
1205.7938,0.057222
1207.6575,0.057225
1209.5211,0.057413
1211.3848,0.057714
1213.2485,0.058045
1215.1121,0.058527
1216.9758,0.059065
1218.8395,0.059470
1220.7031,0.059836
1222.5668,0.060206
1224.4305,0.060521
1226.2941,0.060882
1228.1578,0.061318
1230.0215,0.061831
1231.8852,0.062454
1233.7488,0.062964
1235.6125,0.063360
1237.4762,0.063917
1239.3398,0.064560
1241.2035,0.065206
1243.0672,0.065944
1244.9308,0.066728
1246.7945,0.067506
1248.6582,0.068444
1250.5218,0.069548
1252.3855,0.070643
1254.2492,0.071948
1256.1129,0.073428
1257.9765,0.074770
1259.8402,0.076176
1261.7039,0.077401
1263.5675,0.077902
1265.4312,0.077729
1267.2949,0.077110
1269.1585,0.076376
1271.0222,0.075983
1272.8859,0.076109
1274.7495,0.076745
1276.6132,0.077823
1278.4769,0.079197
1280.3405,0.080892
1282.2042,0.082844
1284.0679,0.085009
1285.9316,0.087511
1287.7952,0.090519
1289.6589,0.094141
1291.5226,0.098294
1293.3862,0.102428
1295.2499,0.105938
1297.1136,0.109098
1298.9772,0.113040
1300.8409,0.118659
1302.7046,0.125140
1304.5682,0.129201
1306.4319,0.126544
1308.2956,0.114766
1310.1592,0.096509
1312.0229,0.079123
1313.8866,0.068321
1315.7503,0.064725
1317.6139,0.065401
1319.4776,0.067903
1321.3413,0.070891
1323.2049,0.073937
1325.0686,0.077239
1326.9323,0.080991
1328.7959,0.084870
1330.6596,0.088050
1332.5233,0.089869
1334.3869,0.089801
1336.2506,0.088386
1338.1143,0.087543
1339.9780,0.088156
1341.8416,0.088169
1343.7053,0.087496
1345.5690,0.087355
1347.4326,0.087824
1349.2963,0.089092
1351.1600,0.090907
1353.0236,0.092962
1354.8873,0.095547
1356.7510,0.098123
1358.6146,0.100197
1360.4783,0.102829
1362.3420,0.107455
1364.2056,0.111639
1366.0693,0.113884
1367.9330,0.117630
1369.7967,0.122428
1371.6603,0.126316
1373.5240,0.132049
1375.3877,0.138580
1377.2513,0.142515
1379.1150,0.147075
1380.9787,0.152909
1382.8423,0.158724
1384.7060,0.164450
1386.5697,0.171091
1388.4333,0.177049
1390.2970,0.177673
1392.1607,0.175961
1394.0244,0.173873
1395.8880,0.168819
1397.7517,0.161386
1399.6154,0.153250
1401.4790,0.144175
1403.3427,0.135075
1405.2064,0.122036
1407.0700,0.105988
1408.9337,0.092123
1410.7974,0.080698
1412.6610,0.072556
1414.5247,0.068157
1416.3884,0.067048
1418.2520,0.069887
1420.1157,0.075512
1421.9794,0.077415
1423.8431,0.075086
1425.7067,0.067779
1427.5704,0.059990
1429.4341,0.055193
1431.2977,0.052974
1433.1614,0.052369
1435.0251,0.053627
1436.8887,0.057484
1438.7524,0.059896
1440.6161,0.060841
1442.4797,0.062926
1444.3434,0.064880
1446.2071,0.066376
1448.0707,0.067353
1449.9344,0.065932
1451.7981,0.062849
1453.6618,0.059758
1455.5254,0.059179
1457.3891,0.064122
1459.2528,0.066824
1461.1164,0.065779
1462.9801,0.066181
1464.8438,0.067943
1466.7074,0.067453
1468.5711,0.064664
1470.4348,0.063080
1472.2984,0.064259
1474.1621,0.065763
1476.0258,0.065454
1477.8895,0.064804
1479.7531,0.064337
1481.6168,0.064924
1483.4805,0.065618
1485.3441,0.066160
1487.2078,0.067778
1489.0715,0.071168
1490.9351,0.074257
1492.7988,0.073850
1494.6625,0.073930
1496.5261,0.077337
1498.3898,0.080824
1500.2535,0.081570
1502.1171,0.081164
1503.9808,0.080845
1505.8445,0.084115
1507.7082,0.092015
1509.5718,0.090055
1511.4355,0.087660
1513.2992,0.086548
1515.1628,0.086025
1517.0265,0.086776
1518.8902,0.086643
1520.7538,0.088070
1522.6175,0.090726
1524.4812,0.090008
1526.3448,0.090974
1528.2085,0.092341
1530.0722,0.092188
1531.9359,0.093558
1533.7995,0.097304
1535.6632,0.097600
1537.5269,0.096758
1539.3905,0.102117
1541.2542,0.111555
1543.1179,0.112269
1544.9815,0.113693
1546.8452,0.114847
1548.7089,0.116436
1550.5725,0.120286
1552.4362,0.122736
1554.2999,0.124635
1556.1635,0.127051
1558.0272,0.133584
1559.8909,0.148440
1561.7546,0.142871
1563.6182,0.140002
1565.4819,0.141900
1567.3456,0.143693
1569.2092,0.147226
1571.0729,0.150380
1572.9366,0.149030
1574.8002,0.150490
1576.6639,0.155773
1578.5276,0.155864
1580.3912,0.154349
1582.2549,0.154918
1584.1186,0.155520
1585.9822,0.155785
1587.8459,0.155533
1589.7096,0.154639
1591.5733,0.153466
1593.4369,0.152076
1595.3006,0.150227
1597.1643,0.147996
1599.0279,0.145593
1600.8916,0.143226
1602.7553,0.141164
1604.6189,0.139154
1606.4826,0.137307
1608.3463,0.135662
1610.2099,0.133236
1612.0736,0.130003
1613.9373,0.126567
1615.8010,0.123394
1617.6646,0.117997
1619.5283,0.111225
1621.3920,0.106671
1623.2556,0.101782
1625.1193,0.095024
1626.9830,0.088640
1628.8466,0.081322
1630.7103,0.073436
1632.5740,0.066909
1634.4376,0.060984
1636.3013,0.054270
1638.1650,0.049740
1640.0286,0.047995
1641.8923,0.046699
1643.7560,0.046289
1645.6197,0.047423
1647.4833,0.050039
1649.3470,0.051002
1651.2107,0.052237
1653.0743,0.057510
1654.9380,0.061663
1656.8017,0.060413
1658.6653,0.060766
1660.5290,0.061708
1662.3927,0.062343
1664.2563,0.061789
1666.1200,0.060597
1667.9837,0.059978
1669.8474,0.059619
1671.7110,0.058823
1673.5747,0.058888
1675.4384,0.060760
1677.3020,0.062791
1679.1657,0.063961
1681.0294,0.066091
1682.8930,0.068732
1684.7567,0.072580
1686.6204,0.072149
1688.4840,0.069754
1690.3477,0.067538
1692.2114,0.064498
1694.0750,0.061432
1695.9387,0.058317
1697.8024,0.054774
1699.6661,0.052245
1701.5297,0.047106
1703.3934,0.042306
1705.2571,0.037729
1707.1207,0.031583
1708.9844,0.027145
1710.8481,0.023914
1712.7117,0.021348
1714.5754,0.019659
1716.4391,0.018236
1718.3027,0.017323
1720.1664,0.016647
1722.0301,0.016032
1723.8937,0.015033
1725.7574,0.013609
1727.6211,0.012176
1729.4848,0.010831
1731.3484,0.009702
1733.2121,0.009047
1735.0758,0.008097
1736.9394,0.007585
1738.8031,0.007460
1740.6668,0.007180
1742.5304,0.006942
1744.3941,0.006800
1746.2578,0.006489
1748.1214,0.006186
1749.9851,0.005927
1751.8488,0.005888
1753.7125,0.005800
1755.5761,0.005616
1757.4398,0.005327
1759.3035,0.005202
1761.1671,0.005151
1763.0308,0.005125
1764.8945,0.005277
1766.7581,0.005417
1768.6218,0.005203
1770.4855,0.004947
1772.3491,0.004915
1774.2128,0.004947
1776.0765,0.004885
1777.9401,0.004859
1779.8038,0.004847
1781.6675,0.004959
1783.5312,0.004954
1785.3948,0.004916
1787.2585,0.005006
1789.1222,0.005040
1790.9858,0.004883
1792.8495,0.004784
1794.7132,0.004879
1796.5768,0.005063
1798.4405,0.004975
1800.3042,0.004857
1802.1678,0.004922
1804.0315,0.005124
1805.8952,0.005156
1807.7589,0.005169
1809.6225,0.005140
1811.4862,0.005031
1813.3499,0.004836
1815.2135,0.004688
1817.0772,0.004720
1818.9409,0.004908
1820.8045,0.004770
1822.6682,0.004796
1824.5319,0.005056
1826.3955,0.004917
1828.2592,0.004672
1830.1229,0.004639
1831.9865,0.004646
1833.8502,0.004791
1835.7139,0.004778
1837.5776,0.004670
1839.4412,0.004490
1841.3049,0.004454
1843.1686,0.004610
1845.0322,0.004515
1846.8959,0.004487
1848.7596,0.004716
1850.6232,0.004739
1852.4869,0.004871
1854.3506,0.004885
1856.2142,0.004821
1858.0779,0.004778
1859.9416,0.004733
1861.8052,0.004773
1863.6689,0.004783
1865.5326,0.004661
1867.3963,0.004785
1869.2599,0.004898
1871.1236,0.004709
1872.9873,0.004647
1874.8509,0.004976
1876.7146,0.004818
1878.5783,0.004394
1880.4419,0.004339
1882.3056,0.004442
1884.1693,0.004503
1886.0329,0.004819
1887.8966,0.004760
1889.7603,0.004487
1891.6240,0.004452
1893.4876,0.004455
1895.3513,0.004315
1897.2150,0.004674
1899.0786,0.004962
1900.9423,0.004696
1902.8060,0.004689
1904.6696,0.004816
1906.5333,0.004439
1908.3970,0.004304
1910.2606,0.004560
1912.1243,0.004997
1913.9880,0.004947
1915.8516,0.004601
1917.7153,0.004342
1919.5790,0.004423
1921.4427,0.004623
1923.3063,0.004462
1925.1700,0.004324
1927.0337,0.004268
1928.8973,0.004032
1930.7610,0.004538
1932.6247,0.005152
1934.4883,0.004890
1936.3520,0.004223
1938.2157,0.004375
1940.0793,0.004825
1941.9430,0.004503
1943.8067,0.003894
1945.6704,0.003704
1947.5340,0.003751
1949.3977,0.003659
1951.2614,0.003150
1953.1250,0.003355
1954.9887,0.003767
1956.8524,0.003551
1958.7160,0.003139
1960.5797,0.003430
1962.4434,0.003778
1964.3070,0.002552
1966.1707,0.000968
1968.0344,0.000806
1969.8980,0.000554
1971.7617,0.000757
1973.6254,0.001174
1975.4891,0.000984
1977.3527,0.001029
1979.2164,0.002392
1981.0801,0.002771
1982.9437,0.002816
1984.8074,0.003831
1986.6711,0.003617
1988.5347,0.002379
1990.3984,0.002704
1992.2621,0.002918
1994.1257,0.002858
1995.9894,0.003296
1997.8531,0.004309
1999.7167,0.003795
2001.5804,0.002699
2003.4441,0.002280
2005.3078,0.002652
2007.1714,0.003653
2009.0351,0.003587
2010.8988,0.002458
2012.7624,0.002463
2014.6261,0.002906
2016.4898,0.003318
2018.3534,0.002805
2020.2171,0.002509
2022.0808,0.003274
2023.9444,0.003870
2025.8081,0.002617
2027.6718,0.001297
2029.5355,0.000658
2031.3991,0.000345
2033.2628,0.000535
2035.1265,0.001601
2036.9901,0.002574
2038.8538,0.003144
2040.7175,0.003113
2042.5811,0.004048
2044.4448,0.004375
2046.3085,0.004270
2048.1721,0.004273
2050.0358,0.005126
2051.8995,0.006064
2053.7631,0.006288
2055.6268,0.005620
2057.4905,0.005086
2059.3542,0.004838
2061.2178,0.005312
2063.0815,0.005147
2064.9452,0.004732
2066.8088,0.005388
2068.6725,0.006265
2070.5362,0.006016
2072.3998,0.006156
2074.2635,0.006117
2076.1272,0.006225
2077.9908,0.007103
2079.8545,0.007620
2081.7182,0.007257
2083.5819,0.007048
2085.4455,0.007054
2087.3092,0.006972
2089.1729,0.007014
2091.0365,0.007106
2092.9002,0.006781
2094.7639,0.006733
2096.6275,0.006867
2098.4912,0.006747
2100.3549,0.006945
2102.2185,0.007142
2104.0822,0.006903
2105.9459,0.007588
2107.8095,0.007988
2109.6732,0.007733
2111.5369,0.007824
2113.4006,0.008027
2115.2642,0.007843
2117.1279,0.007540
2118.9916,0.007240
2120.8552,0.007414
2122.7189,0.007766
2124.5826,0.008211
2126.4462,0.007901
2128.3099,0.007054
2130.1736,0.006558
2132.0372,0.006389
2133.9009,0.006101
2135.7646,0.006001
2137.6282,0.005994
2139.4919,0.006320
2141.3556,0.006162
2143.2193,0.004330
2145.0829,0.004063
2146.9466,0.005238
2148.8103,0.005666
2150.6739,0.005684
2152.5376,0.004103
2154.4013,0.002110
2156.2649,0.001797
2158.1286,0.002366
2159.9923,0.003858
2161.8559,0.004828
2163.7196,0.004869
2165.5833,0.005244
2167.4470,0.004918
2169.3106,0.005175
2171.1743,0.005465
2173.0380,0.005170
2174.9016,0.004624
2176.7653,0.005214
2178.6290,0.005228
2180.4926,0.005050
2182.3563,0.005293
2184.2200,0.006795
2186.0836,0.006710
2187.9473,0.006417
2189.8110,0.007119
2191.6746,0.007337
2193.5383,0.007626
2195.4020,0.007730
2197.2657,0.007769
2199.1293,0.008195
2200.9930,0.007920
2202.8567,0.007585
2204.7203,0.007507
2206.5840,0.008477
2208.4477,0.008802
2210.3113,0.008705
2212.1750,0.009662
2214.0387,0.010040
2215.9023,0.009655
2217.7660,0.008744
2219.6297,0.008754
2221.4934,0.009033
2223.3570,0.009028
2225.2207,0.010052
2227.0844,0.010428
2228.9480,0.010172
2230.8117,0.010184
2232.6754,0.009896
2234.5390,0.009847
2236.4027,0.009856
2238.2664,0.009142
2240.1300,0.009786
2241.9937,0.010879
2243.8574,0.010833
2245.7210,0.010568
2247.5847,0.011184
2249.4484,0.010929
2251.3121,0.009564
2253.1757,0.008995
2255.0394,0.010073
2256.9031,0.011012
2258.7667,0.010756
2260.6304,0.010865
2262.4941,0.011366
2264.3577,0.010889
2266.2214,0.010582
2268.0851,0.011023
2269.9487,0.011334
2271.8124,0.011273
2273.6761,0.012051
2275.5397,0.012897
2277.4034,0.013012
2279.2671,0.012740
2281.1308,0.012309
2282.9944,0.012468
2284.8581,0.013103
2286.7218,0.013045
2288.5854,0.013144
2290.4491,0.013568
2292.3128,0.013443
2294.1764,0.013154
2296.0401,0.013292
2297.9038,0.013330
2299.7674,0.013154
2301.6311,0.013300
2303.4948,0.013586
2305.3585,0.013726
2307.2221,0.013601
2309.0858,0.013072
2310.9495,0.013129
2312.8131,0.013364
2314.6768,0.013288
2316.5405,0.013451
2318.4041,0.013627
2320.2678,0.013542
2322.1315,0.013591
2323.9951,0.013448
2325.8588,0.012999
2327.7225,0.012417
2329.5861,0.012244
2331.4498,0.012638
2333.3135,0.012905
2335.1772,0.012686
2337.0408,0.012395
2338.9045,0.012522
2340.7682,0.012616
2342.6318,0.012543
2344.4955,0.012682
2346.3592,0.012721
2348.2228,0.012492
2350.0865,0.012227
2351.9502,0.012084
2353.8138,0.012081
2355.6775,0.011843
2357.5412,0.011887
2359.4049,0.012155
2361.2685,0.012395
2363.1322,0.012438
2364.9959,0.012493
2366.8595,0.013228
2368.7232,0.013246
2370.5869,0.012729
2372.4505,0.012840
2374.3142,0.013090
2376.1779,0.012916
2378.0415,0.012890
2379.9052,0.013201
2381.7689,0.013349
2383.6325,0.013241
2385.4962,0.013257
2387.3599,0.013381
2389.2236,0.013450
2391.0872,0.013374
2392.9509,0.013425
2394.8146,0.013445
2396.6782,0.013473
2398.5419,0.013546
2400.4056,0.013795
2402.2692,0.014096
2404.1329,0.014165
2405.9966,0.014222
2407.8602,0.014082
2409.7239,0.013782
2411.5876,0.013888
2413.4512,0.014167
2415.3149,0.014217
2417.1786,0.014356
2419.0423,0.014840
2420.9059,0.014850
2422.7696,0.014606
2424.6333,0.014959
2426.4969,0.015096
2428.3606,0.015152
2430.2243,0.015377
2432.0879,0.015223
2433.9516,0.015042
2435.8153,0.015041
2437.6789,0.014896
2439.5426,0.014630
2441.4063,0.015151
2443.2700,0.015639
2445.1336,0.015379
2446.9973,0.015154
2448.8610,0.015298
2450.7246,0.015297
2452.5883,0.015495
2454.4520,0.015687
2456.3156,0.015410
2458.1793,0.015258
2460.0430,0.015183
2461.9066,0.015416
2463.7703,0.015514
2465.6340,0.015420
2467.4976,0.015720
2469.3613,0.016038
2471.2250,0.015678
2473.0887,0.015561
2474.9523,0.015412
2476.8160,0.015359
2478.6797,0.015962
2480.5433,0.016107
2482.4070,0.016036
2484.2707,0.016281
2486.1343,0.016585
2487.9980,0.016676
2489.8617,0.016987
2491.7253,0.016890
2493.5890,0.016697
2495.4527,0.016969
2497.3164,0.016973
2499.1800,0.017068
2501.0437,0.017270
2502.9074,0.017326
2504.7710,0.017160
2506.6347,0.017077
2508.4984,0.017357
2510.3620,0.017620
2512.2257,0.017404
2514.0894,0.016959
2515.9530,0.017307
2517.8167,0.017917
2519.6804,0.018179
2521.5440,0.018066
2523.4077,0.017866
2525.2714,0.017996
2527.1351,0.017993
