Wavenumber,Intensity
650.4205,0.208758
652.2841,0.204231
654.1478,0.197192
656.0115,0.188817
657.8751,0.183130
659.7388,0.181113
661.6025,0.179580
663.4661,0.175082
665.3298,0.170606
667.1935,0.168800
669.0571,0.168951
670.9208,0.165881
672.7845,0.165597
674.6481,0.167340
676.5118,0.169288
678.3755,0.169971
680.2392,0.171764
682.1028,0.172628
683.9665,0.172882
685.8302,0.172666
687.6938,0.173048
689.5575,0.172852
691.4212,0.173573
693.2848,0.173025
695.1485,0.173559
697.0122,0.174881
698.8758,0.175794
700.7395,0.175608
702.6032,0.174873
704.4669,0.171311
706.3305,0.165945
708.1942,0.158130
710.0579,0.149342
711.9215,0.141617
713.7852,0.133829
715.6489,0.126168
717.5125,0.120306
719.3762,0.114146
721.2399,0.108544
723.1035,0.104729
724.9672,0.100866
726.8309,0.096079
728.6945,0.091465
730.5582,0.087543
732.4219,0.084749
734.2856,0.081637
736.1492,0.078537
738.0129,0.076732
739.8766,0.077964
741.7402,0.081024
743.6039,0.083594
745.4676,0.084727
747.3312,0.084868
749.1949,0.084813
751.0586,0.083697
752.9222,0.082368
754.7859,0.081946
756.6496,0.081679
758.5132,0.080903
760.3769,0.080150
762.2406,0.079613
764.1043,0.078920
765.9679,0.078795
767.8316,0.078808
769.6953,0.078778
771.5589,0.079078
773.4226,0.079531
775.2863,0.079978
777.1499,0.080717
779.0136,0.081580
780.8773,0.082141
782.7409,0.082892
784.6046,0.084264
786.4683,0.085862
788.3320,0.087736
790.1956,0.089628
792.0593,0.091618
793.9230,0.093597
795.7866,0.095310
797.6503,0.096703
799.5140,0.098011
801.3776,0.098713
803.2413,0.098749
805.1050,0.098377
806.9686,0.097710
808.8323,0.096445
810.6960,0.094201
812.5596,0.090934
814.4233,0.087766
816.2870,0.084881
818.1507,0.082129
820.0143,0.079781
821.8780,0.078356
823.7417,0.077718
825.6053,0.078534
827.4690,0.080868
829.3327,0.082116
831.1963,0.077676
833.0600,0.067729
834.9237,0.059006
836.7873,0.055476
838.6510,0.055039
840.5147,0.054681
842.3784,0.054221
844.2420,0.054230
846.1057,0.053780
847.9694,0.052396
849.8330,0.049813
851.6967,0.046613
853.5604,0.044320
855.4240,0.042874
857.2877,0.041934
859.1514,0.041265
861.0150,0.040659
862.8787,0.040344
864.7424,0.040525
866.6060,0.040651
868.4697,0.040599
870.3334,0.040650
872.1971,0.041069
874.0607,0.041696
875.9244,0.042266
877.7881,0.042936
879.6517,0.043814
881.5154,0.044900
883.3791,0.045715
885.2427,0.046113
887.1064,0.046060
888.9701,0.045408
890.8337,0.044854
892.6974,0.044731
894.5611,0.044944
896.4247,0.045612
898.2884,0.046704
900.1521,0.047994
902.0158,0.049780
903.8794,0.052333
905.7431,0.055804
907.6068,0.060039
909.4704,0.064740
911.3341,0.069944
913.1978,0.075642
915.0614,0.077990
916.9251,0.070397
918.7888,0.056638
920.6524,0.046480
922.5161,0.042205
924.3798,0.041214
926.2435,0.041306
928.1071,0.041541
929.9708,0.041852
931.8345,0.042332
933.6981,0.043010
935.5618,0.043934
937.4255,0.044909
939.2891,0.045848
941.1528,0.046782
943.0165,0.047673
944.8801,0.048234
946.7438,0.048534
948.6075,0.048726
950.4711,0.048905
952.3348,0.049412
954.1985,0.050266
956.0622,0.051211
957.9258,0.052282
959.7895,0.053440
961.6532,0.054754
963.5168,0.056402
965.3805,0.058340
967.2442,0.060573
969.1078,0.063183
970.9715,0.066111
972.8352,0.069719
974.6988,0.075274
976.5625,0.084720
978.4262,0.100790
980.2899,0.121902
982.1535,0.127984
984.0172,0.102312
985.8809,0.072029
987.7445,0.059499
989.6082,0.058200
991.4719,0.058110
993.3355,0.056626
995.1992,0.055046
997.0629,0.054206
998.9265,0.053948
1000.7902,0.054138
1002.6539,0.054601
1004.5175,0.055084
1006.3812,0.055694
1008.2449,0.056536
1010.1086,0.057354
1011.9722,0.058125
1013.8359,0.059173
1015.6996,0.060432
1017.5632,0.061590
1019.4269,0.062630
1021.2906,0.063761
1023.1542,0.064879
1025.0179,0.065992
1026.8816,0.067216
1028.7452,0.068599
1030.6089,0.070143
1032.4726,0.071857
1034.3362,0.073941
1036.1999,0.076372
1038.0636,0.078889
1039.9273,0.081538
1041.7909,0.084725
1043.6546,0.088583
1045.5183,0.092524
1047.3819,0.095590
1049.2456,0.095775
1051.1093,0.091208
1052.9729,0.083251
1054.8366,0.075841
1056.7003,0.071456
1058.5639,0.069893
1060.4276,0.069723
1062.2913,0.069475
1064.1550,0.069113
1066.0186,0.069195
1067.8823,0.069953
1069.7460,0.071459
1071.6096,0.073201
1073.4733,0.075067
1075.3370,0.077112
1077.2006,0.079289
1079.0643,0.081631
1080.9280,0.084233
1082.7916,0.087217
1084.6553,0.090439
1086.5190,0.093908
1088.3826,0.097539
1090.2463,0.101482
1092.1100,0.106006
1093.9737,0.111198
1095.8373,0.117011
1097.7010,0.123352
1099.5647,0.130045
1101.4283,0.136603
1103.2920,0.142339
1105.1557,0.146113
1107.0193,0.146211
1108.8830,0.141384
1110.7467,0.131989
1112.6103,0.120207
1114.4740,0.108144
1116.3377,0.097312
1118.2014,0.088692
1120.0650,0.082429
1121.9287,0.078293
1123.7924,0.075738
1125.6560,0.073896
1127.5197,0.072256
1129.3834,0.070513
1131.2470,0.068554
1133.1107,0.066474
1134.9744,0.064498
1136.8380,0.062886
1138.7017,0.061756
1140.5654,0.061194
1142.4290,0.060964
1144.2927,0.060936
1146.1564,0.061115
1148.0201,0.061528
1149.8837,0.062171
1151.7474,0.063052
1153.6111,0.064103
1155.4747,0.065201
1157.3384,0.065964
1159.2021,0.066143
1161.0657,0.066227
1162.9294,0.066799
1164.7931,0.068182
1166.6567,0.070515
1168.5204,0.073319
1170.3841,0.076170
1172.2477,0.078306
1174.1114,0.078111
1175.9751,0.074964
1177.8388,0.070536
1179.7024,0.066982
1181.5661,0.065075
1183.4298,0.064502
1185.2934,0.064420
1187.1571,0.064270
1189.0208,0.064069
1190.8844,0.063643
1192.7481,0.063070
1194.6118,0.062690
1196.4754,0.062581
1198.3391,0.062705
1200.2028,0.063028
1202.0665,0.063302
1203.9301,0.063357
1205.7938,0.063343
1207.6575,0.063394
1209.5211,0.063594
1211.3848,0.063910
1213.2485,0.064287
1215.1121,0.064788
1216.9758,0.065334
1218.8395,0.065879
1220.7031,0.066297
1222.5668,0.066548
1224.4305,0.066917
1226.2941,0.067468
1228.1578,0.068002
1230.0215,0.068572
1231.8852,0.069126
1233.7488,0.069658
1235.6125,0.070292
1237.4762,0.070921
1239.3398,0.071555
1241.2035,0.072339
1243.0672,0.073211
1244.9308,0.074135
1246.7945,0.075030
1248.6582,0.075983
1250.5218,0.077107
1252.3855,0.078438
1254.2492,0.079882
1256.1129,0.081324
1257.9765,0.082859
1259.8402,0.084434
1261.7039,0.085583
1263.5675,0.085978
1265.4312,0.085803
1267.2949,0.085210
1269.1585,0.084411
1271.0222,0.083890
1272.8859,0.084047
1274.7495,0.084824
1276.6132,0.086028
1278.4769,0.087632
1280.3405,0.089544
1282.2042,0.091659
1284.0679,0.094015
1285.9316,0.096773
1287.7952,0.100128
1289.6589,0.104092
1291.5226,0.108696
1293.3862,0.113635
1295.2499,0.118197
1297.1136,0.122423
1298.9772,0.127344
1300.8409,0.134159
1302.7046,0.141971
1304.5682,0.146555
1306.4319,0.142728
1308.2956,0.128063
1310.1592,0.106353
1312.0229,0.086602
1313.8866,0.075098
1315.7503,0.071700
1317.6139,0.072828
1319.4776,0.075894
1321.3413,0.079194
1323.2049,0.082506
1325.0686,0.086213
1326.9323,0.090247
1328.7959,0.094458
1330.6596,0.098081
1332.5233,0.100226
1334.3869,0.100083
1336.2506,0.098392
1338.1143,0.097549
1339.9780,0.098453
1341.8416,0.098539
1343.7053,0.097396
1345.5690,0.096930
1347.4326,0.097428
1349.2963,0.098978
1351.1600,0.101112
1353.0236,0.103378
1354.8873,0.106445
1356.7510,0.109558
1358.6146,0.111657
1360.4783,0.114078
1362.3420,0.119151
1364.2056,0.124468
1366.0693,0.127006
1367.9330,0.130943
1369.7967,0.136508
1371.6603,0.140879
1373.5240,0.147225
1375.3877,0.155337
1377.2513,0.160213
1379.1150,0.165404
1380.9787,0.172343
1382.8423,0.179266
1384.7060,0.185907
1386.5697,0.193765
1388.4333,0.202114
1390.2970,0.203341
1392.1607,0.200321
1394.0244,0.196611
1395.8880,0.190700
1397.7517,0.182082
1399.6154,0.172698
1401.4790,0.162901
1403.3427,0.152012
1405.2064,0.136797
1407.0700,0.118522
1408.9337,0.101976
1410.7974,0.088412
1412.6610,0.079701
1414.5247,0.075525
1416.3884,0.074663
1418.2520,0.077946
1420.1157,0.085044
1421.9794,0.087130
1423.8431,0.084059
1425.7067,0.076170
1427.5704,0.067271
1429.4341,0.061768
1431.2977,0.059658
1433.1614,0.058918
1435.0251,0.059594
1436.8887,0.064208
1438.7524,0.068212
1440.6161,0.068959
1442.4797,0.070907
1444.3434,0.072848
1446.2071,0.074319
1448.0707,0.075790
1449.9344,0.074775
1451.7981,0.071030
1453.6618,0.067187
1455.5254,0.065778
1457.3891,0.071925
1459.2528,0.076953
1461.1164,0.075589
1462.9801,0.075264
1464.8438,0.077003
1466.7074,0.076886
1468.5711,0.073477
1470.4348,0.070903
1472.2984,0.072060
1474.1621,0.075059
1476.0258,0.074829
1477.8895,0.074026
1479.7531,0.073181
1481.6168,0.073798
1483.4805,0.074761
1485.3441,0.074859
1487.2078,0.076220
1489.0715,0.080012
1490.9351,0.084143
1492.7988,0.083910
1494.6625,0.083008
1496.5261,0.086303
1498.3898,0.090814
1500.2535,0.091891
1502.1171,0.091043
1503.9808,0.089450
1505.8445,0.091335
1507.7082,0.101983
1509.5718,0.102033
1511.4355,0.098897
1513.2992,0.097304
1515.1628,0.096309
1517.0265,0.097185
1518.8902,0.097404
1520.7538,0.097848
1522.6175,0.101719
1524.4812,0.101904
1526.3448,0.102716
1528.2085,0.104409
1530.0722,0.104097
1531.9359,0.104833
1533.7995,0.109360
1535.6632,0.111062
1537.5269,0.108829
1539.3905,0.112815
1541.2542,0.124944
1543.1179,0.127328
1544.9815,0.129286
1546.8452,0.130945
1548.7089,0.131782
1550.5725,0.135559
1552.4362,0.138235
1554.2999,0.139506
1556.1635,0.141269
1558.0272,0.145713
1559.8909,0.165286
1561.7546,0.163427
1563.6182,0.158825
1565.4819,0.159820
1567.3456,0.161359
1569.2092,0.164394
1571.0729,0.169149
1572.9366,0.168117
1574.8002,0.168082
1576.6639,0.174256
1578.5276,0.177101
1580.3912,0.175352
1582.2549,0.175540
1584.1186,0.175955
1585.9822,0.175900
1587.8459,0.175485
1589.7096,0.174305
1591.5733,0.172768
1593.4369,0.171137
1595.3006,0.169177
1597.1643,0.166579
1599.0279,0.163568
1600.8916,0.160690
1602.7553,0.158192
1604.6189,0.155883
1606.4826,0.153646
1608.3463,0.151574
1610.2099,0.149274
1612.0736,0.145717
1613.9373,0.141006
1615.8010,0.136036
1617.6646,0.130751
1619.5283,0.124510
1621.3920,0.118272
1623.2556,0.111827
1625.1193,0.105219
1626.9830,0.097787
1628.8466,0.089349
1630.7103,0.080958
1632.5740,0.073028
1634.4376,0.064968
1636.3013,0.057906
1638.1650,0.054353
1640.0286,0.052378
1641.8923,0.050680
1643.7560,0.050088
1645.6197,0.051116
1647.4833,0.054842
1649.3470,0.056837
1651.2107,0.056392
1653.0743,0.059983
1654.9380,0.067907
1656.8017,0.066966
1658.6653,0.066475
1660.5290,0.066750
1662.3927,0.067162
1664.2563,0.067482
1666.1200,0.065919
1667.9837,0.063945
1669.8474,0.063775
1671.7110,0.064393
1673.5747,0.064408
1675.4384,0.066373
1677.3020,0.069431
1679.1657,0.070259
1681.0294,0.071941
1682.8930,0.073333
1684.7567,0.077646
1686.6204,0.080068
1688.4840,0.077085
1690.3477,0.073844
1692.2114,0.070020
1694.0750,0.065469
1695.9387,0.061360
1697.8024,0.058523
1699.6661,0.054894
1701.5297,0.050721
1703.3934,0.045835
1705.2571,0.039788
1707.1207,0.033393
1708.9844,0.028617
1710.8481,0.025001
1712.7117,0.022079
1714.5754,0.019804
1716.4391,0.018449
1718.3027,0.018669
1720.1664,0.018818
1722.0301,0.017435
1723.8937,0.015990
1725.7574,0.014523
1727.6211,0.012809
1729.4848,0.011306
1731.3484,0.010049
1733.2121,0.008717
1735.0758,0.008977
1736.9394,0.008798
1738.8031,0.007708
1740.6668,0.007662
1742.5304,0.007453
1744.3941,0.007281
1746.2578,0.006900
1748.1214,0.006353
1749.9851,0.006338
1751.8488,0.006752
1753.7125,0.006738
1755.5761,0.005988
1757.4398,0.005837
1759.3035,0.006000
1761.1671,0.005787
1763.0308,0.006188
1764.8945,0.006108
1766.7581,0.005495
1768.6218,0.005335
1770.4855,0.005285
1772.3491,0.005379
1774.2128,0.006184
1776.0765,0.005922
1777.9401,0.005667
1779.8038,0.005544
1781.6675,0.005808
1783.5312,0.005735
1785.3948,0.005715
1787.2585,0.005792
1789.1222,0.005438
1790.9858,0.005081
1792.8495,0.005717
1794.7132,0.006263
1796.5768,0.005936
1798.4405,0.005465
1800.3042,0.005356
1802.1678,0.005677
1804.0315,0.005872
1805.8952,0.005867
1807.7589,0.005915
1809.6225,0.005847
1811.4862,0.005876
1813.3499,0.005747
1815.2135,0.005581
1817.0772,0.005593
1818.9409,0.005745
1820.8045,0.005772
1822.6682,0.005647
1824.5319,0.005400
1826.3955,0.005700
1828.2592,0.005550
1830.1229,0.005457
1831.9865,0.005888
1833.8502,0.005729
1835.7139,0.005496
1837.5776,0.005444
1839.4412,0.005511
1841.3049,0.005400
1843.1686,0.005139
1845.0322,0.005793
1846.8959,0.006205
1848.7596,0.005859
1850.6232,0.005839
1852.4869,0.005812
1854.3506,0.005760
1856.2142,0.005707
1858.0779,0.005764
1859.9416,0.005972
1861.8052,0.006141
1863.6689,0.005911
1865.5326,0.005545
1867.3963,0.005262
1869.2599,0.005559
1871.1236,0.006110
1872.9873,0.006134
1874.8509,0.006133
1876.7146,0.005850
1878.5783,0.005596
1880.4419,0.005670
1882.3056,0.005727
1884.1693,0.005520
1886.0329,0.005683
1887.8966,0.006074
1889.7603,0.005954
1891.6240,0.005666
1893.4876,0.005554
1895.3513,0.005839
1897.2150,0.006050
1899.0786,0.005707
1900.9423,0.005691
1902.8060,0.005770
1904.6696,0.005646
1906.5333,0.005776
1908.3970,0.006102
1910.2606,0.006164
1912.1243,0.006203
1913.9880,0.005984
1915.8516,0.005658
1917.7153,0.005979
1919.5790,0.006300
1921.4427,0.006016
1923.3063,0.005958
1925.1700,0.005657
1927.0337,0.005305
1928.8973,0.005414
1930.7610,0.005657
1932.6247,0.005954
1934.4883,0.005904
1936.3520,0.005766
1938.2157,0.005815
1940.0793,0.005379
1941.9430,0.004923
1943.8067,0.005018
1945.6704,0.004882
1947.5340,0.005008
1949.3977,0.004884
1951.2614,0.004482
1953.1250,0.004492
1954.9887,0.004349
1956.8524,0.004503
1958.7160,0.005003
1960.5797,0.004492
1962.4434,0.003333
1964.3070,0.002601
1966.1707,0.001896
1968.0344,0.001498
1969.8980,0.000835
1971.7617,0.000948
1973.6254,0.001209
1975.4891,0.002255
1977.3527,0.004444
1979.2164,0.005232
1981.0801,0.004660
1982.9437,0.004116
1984.8074,0.004336
1986.6711,0.004689
1988.5347,0.004626
1990.3984,0.004899
1992.2621,0.004804
1994.1257,0.004280
1995.9894,0.004313
1997.8531,0.004677
1999.7167,0.004895
2001.5804,0.004541
2003.4441,0.003280
2005.3078,0.003553
2007.1714,0.004850
2009.0351,0.005228
2010.8988,0.003912
2012.7624,0.003058
2014.6261,0.003455
2016.4898,0.003454
2018.3534,0.002757
2020.2171,0.002283
2022.0808,0.002592
2023.9444,0.004099
2025.8081,0.004824
2027.6718,0.004762
2029.5355,0.003968
2031.3991,0.003669
2033.2628,0.003844
2035.1265,0.003640
2036.9901,0.003043
2038.8538,0.003565
2040.7175,0.005303
2042.5811,0.006629
2044.4448,0.006316
2046.3085,0.005581
2048.1721,0.006201
2050.0358,0.007448
2051.8995,0.007602
2053.7631,0.006716
2055.6268,0.006928
2057.4905,0.007564
2059.3542,0.007365
2061.2178,0.007561
2063.0815,0.007973
2064.9452,0.007995
2066.8088,0.007545
2068.6725,0.006620
2070.5362,0.006721
2072.3998,0.007529
2074.2635,0.007860
2076.1272,0.008301
2077.9908,0.008811
2079.8545,0.009060
2081.7182,0.009086
2083.5819,0.009130
2085.4455,0.009289
2087.3092,0.009348
2089.1729,0.009156
2091.0365,0.008948
2092.9002,0.008649
2094.7639,0.008929
2096.6275,0.008917
2098.4912,0.008732
2100.3549,0.009494
2102.2185,0.010027
2104.0822,0.009778
2105.9459,0.009448
2107.8095,0.009174
2109.6732,0.009515
2111.5369,0.009726
2113.4006,0.009734
2115.2642,0.009387
2117.1279,0.008731
2118.9916,0.008896
2120.8552,0.009952
2122.7189,0.010285
2124.5826,0.009690
2126.4462,0.009274
2128.3099,0.009105
2130.1736,0.008919
2132.0372,0.008516
2133.9009,0.007983
2135.7646,0.008328
2137.6282,0.008151
2139.4919,0.006762
2141.3556,0.006355
2143.2193,0.007246
2145.0829,0.006980
2146.9466,0.006470
2148.8103,0.006509
2150.6739,0.006010
2152.5376,0.005955
2154.4013,0.005724
2156.2649,0.003514
2158.1286,0.002561
2159.9923,0.004777
2161.8559,0.007573
2163.7196,0.007809
2165.5833,0.007454
2167.4470,0.006420
2169.3106,0.005440
2171.1743,0.005107
2173.0380,0.006209
2174.9016,0.007819
2176.7653,0.007757
2178.6290,0.007783
2180.4926,0.008344
2182.3563,0.008459
2184.2200,0.009373
2186.0836,0.008919
2187.9473,0.007791
2189.8110,0.008784
2191.6746,0.010218
2193.5383,0.009948
2195.4020,0.009854
2197.2657,0.009408
2199.1293,0.008901
2200.9930,0.009695
2202.8567,0.010936
2204.7203,0.010466
2206.5840,0.010206
2208.4477,0.010394
2210.3113,0.011050
2212.1750,0.011256
2214.0387,0.010884
2215.9023,0.011001
2217.7660,0.011353
2219.6297,0.011028
2221.4934,0.010936
2223.3570,0.011027
2225.2207,0.011039
2227.0844,0.010671
2228.9480,0.010344
2230.8117,0.010740
2232.6754,0.011653
2234.5390,0.012606
2236.4027,0.012102
2238.2664,0.011626
2240.1300,0.012316
2241.9937,0.013234
2243.8574,0.013509
2245.7210,0.013156
2247.5847,0.012528
2249.4484,0.011858
2251.3121,0.011579
2253.1757,0.011574
2255.0394,0.012180
2256.9031,0.013202
2258.7667,0.013360
2260.6304,0.012744
2262.4941,0.012518
2264.3577,0.013220
2266.2214,0.013335
2268.0851,0.013180
2269.9487,0.013827
2271.8124,0.014239
2273.6761,0.014411
2275.5397,0.014433
2277.4034,0.014919
2279.2671,0.015574
2281.1308,0.015794
2282.9944,0.015982
2284.8581,0.015758
2286.7218,0.015569
2288.5854,0.015756
2290.4491,0.015779
2292.3128,0.015808
2294.1764,0.015649
2296.0401,0.015502
2297.9038,0.015588
2299.7674,0.015641
2301.6311,0.015667
2303.4948,0.015691
2305.3585,0.015878
2307.2221,0.015745
2309.0858,0.015677
2310.9495,0.015686
2312.8131,0.015600
2314.6768,0.015721
2316.5405,0.015949
2318.4041,0.015714
2320.2678,0.015473
2322.1315,0.015860
2323.9951,0.016386
2325.8588,0.016161
2327.7225,0.015390
2329.5861,0.014857
2331.4498,0.014885
2333.3135,0.014966
2335.1772,0.015015
2337.0408,0.014997
2338.9045,0.014850
2340.7682,0.014675
2342.6318,0.014854
2344.4955,0.015077
2346.3592,0.014928
2348.2228,0.014816
2350.0865,0.014540
2351.9502,0.014160
2353.8138,0.013846
2355.6775,0.013686
2357.5412,0.014228
2359.4049,0.014589
2361.2685,0.014231
2363.1322,0.014312
2364.9959,0.014890
2366.8595,0.015128
2368.7232,0.015199
2370.5869,0.015509
2372.4505,0.016097
2374.3142,0.016366
2376.1779,0.016243
2378.0415,0.016038
2379.9052,0.015974
2381.7689,0.015902
2383.6325,0.015852
2385.4962,0.015768
2387.3599,0.015742
2389.2236,0.015936
2391.0872,0.016080
2392.9509,0.016043
2394.8146,0.016151
2396.6782,0.016269
2398.5419,0.016436
2400.4056,0.016407
2402.2692,0.016220
2404.1329,0.016371
2405.9966,0.016706
2407.8602,0.016776
2409.7239,0.016727
2411.5876,0.016659
2413.4512,0.017106
2415.3149,0.017131
2417.1786,0.016716
2419.0423,0.017005
2420.9059,0.017347
2422.7696,0.017390
2424.6333,0.017342
2426.4969,0.017187
2428.3606,0.017118
2430.2243,0.017384
2432.0879,0.017917
2433.9516,0.017963
2435.8153,0.017819
2437.6789,0.017577
2439.5426,0.017599
2441.4063,0.017879
2443.2700,0.018226
2445.1336,0.018389
2446.9973,0.018335
2448.8610,0.018248
2450.7246,0.018213
2452.5883,0.018342
2454.4520,0.018250
2456.3156,0.018239
2458.1793,0.018424
2460.0430,0.018319
2461.9066,0.018702
2463.7703,0.018701
2465.6340,0.018285
2467.4976,0.018317
2469.3613,0.018467
2471.2250,0.018769
2473.0887,0.019093
2474.9523,0.018927
2476.8160,0.018555
2478.6797,0.018505
2480.5433,0.018789
2482.4070,0.018795
2484.2707,0.019049
2486.1343,0.019480
2487.9980,0.019566
2489.8617,0.019524
2491.7253,0.019829
2493.5890,0.019558
2495.4527,0.019305
2497.3164,0.019640
2499.1800,0.019872
2501.0437,0.020045
2502.9074,0.019972
2504.7710,0.019855
2506.6347,0.020077
2508.4984,0.020084
2510.3620,0.020335
2512.2257,0.020940
2514.0894,0.020919
2515.9530,0.020555
2517.8167,0.020408
2519.6804,0.020464
2521.5440,0.020786
2523.4077,0.021371
2525.2714,0.021440
2527.1351,0.021004
