Wavenumber,Intensity
650.4205,0.269132
652.2841,0.262996
654.1478,0.257627
656.0115,0.252896
657.8751,0.251016
659.7388,0.248612
661.6025,0.245652
663.4661,0.241452
665.3298,0.239683
667.1935,0.241575
669.0571,0.243360
670.9208,0.238824
672.7845,0.235743
674.6481,0.233863
676.5118,0.232350
678.3755,0.232239
680.2392,0.232001
682.1028,0.230051
683.9665,0.230231
685.8302,0.230758
687.6938,0.232055
689.5575,0.233113
691.4212,0.233726
693.2848,0.232600
695.1485,0.233161
697.0122,0.234674
698.8758,0.236468
700.7395,0.236706
702.6032,0.236057
704.4669,0.233308
706.3305,0.227730
708.1942,0.218150
710.0579,0.207778
711.9215,0.196526
713.7852,0.184761
715.6489,0.173533
717.5125,0.162583
719.3762,0.153789
721.2399,0.147115
723.1035,0.140473
724.9672,0.134703
726.8309,0.130359
728.6945,0.126497
730.5582,0.121958
732.4219,0.117777
734.2856,0.114042
736.1492,0.110799
738.0129,0.109524
739.8766,0.110911
741.7402,0.114363
743.6039,0.117545
745.4676,0.119091
747.3312,0.119276
749.1949,0.118032
751.0586,0.116708
752.9222,0.115408
754.7859,0.113534
756.6496,0.111882
758.5132,0.110544
760.3769,0.109799
762.2406,0.109996
764.1043,0.110533
765.9679,0.111270
767.8316,0.112119
769.6953,0.111995
771.5589,0.111109
773.4226,0.110611
775.2863,0.110810
777.1499,0.110767
779.0136,0.110305
780.8773,0.110861
782.7409,0.112577
784.6046,0.114321
786.4683,0.115800
788.3320,0.118079
790.1956,0.120892
792.0593,0.123397
793.9230,0.126198
795.7866,0.129361
797.6503,0.131968
799.5140,0.134472
801.3776,0.135994
803.2413,0.135785
805.1050,0.134720
806.9686,0.133302
808.8323,0.131258
810.6960,0.128275
812.5596,0.124419
814.4233,0.120229
816.2870,0.116299
818.1507,0.113052
820.0143,0.110535
821.8780,0.108899
823.7417,0.108130
825.6053,0.108433
827.4690,0.110458
829.3327,0.112027
831.1963,0.106108
833.0600,0.092008
834.9237,0.078633
836.7873,0.071091
838.6510,0.068267
840.5147,0.068005
842.3784,0.068738
844.2420,0.069781
846.1057,0.070429
847.9694,0.069588
849.8330,0.067710
851.6967,0.065933
853.5604,0.064382
855.4240,0.063370
857.2877,0.063102
859.1514,0.062675
861.0150,0.062177
862.8787,0.061878
864.7424,0.061801
866.6060,0.062041
868.4697,0.062221
870.3334,0.062355
872.1971,0.062589
874.0607,0.062570
875.9244,0.062516
877.7881,0.062561
879.6517,0.062762
881.5154,0.063061
883.3791,0.063578
885.2427,0.064264
887.1064,0.065047
888.9701,0.065875
890.8337,0.066465
892.6974,0.067022
894.5611,0.067940
896.4247,0.069287
898.2884,0.071296
900.1521,0.073638
902.0158,0.076083
903.8794,0.079073
905.7431,0.083406
907.6068,0.089043
909.4704,0.096087
911.3341,0.105609
913.1978,0.117136
915.0614,0.123248
916.9251,0.113109
918.7888,0.091806
920.6524,0.075242
922.5161,0.068040
924.3798,0.065482
926.2435,0.064094
928.1071,0.063250
929.9708,0.062996
931.8345,0.063372
933.6981,0.064052
935.5618,0.064991
937.4255,0.066169
939.2891,0.067529
941.1528,0.069305
943.0165,0.070886
944.8801,0.071591
946.7438,0.071818
948.6075,0.071893
950.4711,0.072037
952.3348,0.072538
954.1985,0.073496
956.0622,0.074898
957.9258,0.076604
959.7895,0.078471
961.6532,0.080606
963.5168,0.082704
965.3805,0.084812
967.2442,0.087494
969.1078,0.090954
970.9715,0.094828
972.8352,0.099596
974.6988,0.107158
976.5625,0.119950
978.4262,0.141560
980.2899,0.171679
982.1535,0.182895
984.0172,0.147700
985.8809,0.103703
987.7445,0.084492
989.6082,0.081723
991.4719,0.082778
993.3355,0.084286
995.1992,0.085717
997.0629,0.087097
998.9265,0.088396
1000.7902,0.089584
1002.6539,0.090751
1004.5175,0.091847
1006.3812,0.092678
1008.2449,0.093192
1010.1086,0.093695
1011.9722,0.094413
1013.8359,0.095405
1015.6996,0.096557
1017.5632,0.097818
1019.4269,0.099310
1021.2906,0.101092
1023.1542,0.102979
1025.0179,0.104952
1026.8816,0.107037
1028.7452,0.109075
1030.6089,0.111102
1032.4726,0.113213
1034.3362,0.115267
1036.1999,0.117317
1038.0636,0.119942
1039.9273,0.123550
1041.7909,0.128061
1043.6546,0.133395
1045.5183,0.138976
1047.3819,0.142873
1049.2456,0.142142
1051.1093,0.134338
1052.9729,0.121159
1054.8366,0.108654
1056.7003,0.101232
1058.5639,0.098591
1060.4276,0.098470
1062.2913,0.099124
1064.1550,0.099861
1066.0186,0.100862
1067.8823,0.102238
1069.7460,0.103928
1071.6096,0.106088
1073.4733,0.108803
1075.3370,0.111665
1077.2006,0.114522
1079.0643,0.117632
1080.9280,0.121086
1082.7916,0.124794
1084.6553,0.128660
1086.5190,0.132666
1088.3826,0.136885
1090.2463,0.141744
1092.1100,0.147615
1093.9737,0.154393
1095.8373,0.161983
1097.7010,0.170718
1099.5647,0.180380
1101.4283,0.190066
1103.2920,0.198876
1105.1557,0.205064
1107.0193,0.205960
1108.8830,0.199682
1110.7467,0.186550
1112.6103,0.169507
1114.4740,0.152078
1116.3377,0.136650
1118.2014,0.124303
1120.0650,0.115216
1121.9287,0.109109
1123.7924,0.105092
1125.6560,0.102056
1127.5197,0.099378
1129.3834,0.096868
1131.2470,0.094473
1133.1107,0.092252
1134.9744,0.090387
1136.8380,0.088853
1138.7017,0.087547
1140.5654,0.086592
1142.4290,0.086190
1144.2927,0.086139
1146.1564,0.086090
1148.0201,0.086003
1149.8837,0.085978
1151.7474,0.086175
1153.6111,0.086624
1155.4747,0.087396
1157.3384,0.088495
1159.2021,0.089919
1161.0657,0.091718
1162.9294,0.094048
1164.7931,0.097259
1166.6567,0.101593
1168.5204,0.106935
1170.3841,0.112478
1172.2477,0.116296
1174.1114,0.115931
1175.9751,0.110732
1177.8388,0.103273
1179.7024,0.097136
1181.5661,0.093863
1183.4298,0.092863
1185.2934,0.092891
1187.1571,0.092900
1189.0208,0.092395
1190.8844,0.091138
1192.7481,0.089427
1194.6118,0.088036
1196.4754,0.087366
1198.3391,0.087272
1200.2028,0.087412
1202.0665,0.087669
1203.9301,0.087991
1205.7938,0.088323
1207.6575,0.088768
1209.5211,0.089288
1211.3848,0.089825
1213.2485,0.090419
1215.1121,0.091058
1216.9758,0.091722
1218.8395,0.092423
1220.7031,0.093198
1222.5668,0.093978
1224.4305,0.094756
1226.2941,0.095646
1228.1578,0.096574
1230.0215,0.097523
1231.8852,0.098489
1233.7488,0.099401
1235.6125,0.100384
1237.4762,0.101412
1239.3398,0.102220
1241.2035,0.102759
1243.0672,0.103077
1244.9308,0.103495
1246.7945,0.104366
1248.6582,0.105387
1250.5218,0.106293
1252.3855,0.107200
1254.2492,0.108352
1256.1129,0.109708
1257.9765,0.111081
1259.8402,0.112679
1261.7039,0.114403
1263.5675,0.116059
1265.4312,0.117784
1267.2949,0.119225
1269.1585,0.119957
1271.0222,0.119949
1272.8859,0.119468
1274.7495,0.119308
1276.6132,0.120102
1278.4769,0.121777
1280.3405,0.124032
1282.2042,0.126703
1284.0679,0.129887
1285.9316,0.133705
1287.7952,0.138297
1289.6589,0.143648
1291.5226,0.149636
1293.3862,0.156290
1295.2499,0.163105
1297.1136,0.169426
1298.9772,0.175997
1300.8409,0.184703
1302.7046,0.195315
1304.5682,0.204020
1306.4319,0.204282
1308.2956,0.189318
1310.1592,0.160852
1312.0229,0.131917
1313.8866,0.113184
1315.7503,0.105948
1317.6139,0.105621
1319.4776,0.108211
1321.3413,0.111551
1323.2049,0.115598
1325.0686,0.120744
1326.9323,0.126045
1328.7959,0.130350
1330.6596,0.132946
1332.5233,0.134096
1334.3869,0.135003
1336.2506,0.136671
1338.1143,0.139903
1339.9780,0.143971
1341.8416,0.145528
1343.7053,0.145435
1345.5690,0.146433
1347.4326,0.148480
1349.2963,0.150923
1351.1600,0.152864
1353.0236,0.154531
1354.8873,0.157513
1356.7510,0.161322
1358.6146,0.164526
1360.4783,0.168308
1362.3420,0.174272
1364.2056,0.178883
1366.0693,0.180723
1367.9330,0.185168
1369.7967,0.191648
1371.6603,0.196790
1373.5240,0.202990
1375.3877,0.209490
1377.2513,0.214343
1379.1150,0.222301
1380.9787,0.233051
1382.8423,0.243502
1384.7060,0.253583
1386.5697,0.265425
1388.4333,0.277725
1390.2970,0.283427
1392.1607,0.285287
1394.0244,0.284577
1395.8880,0.276142
1397.7517,0.261634
1399.6154,0.245536
1401.4790,0.231407
1403.3427,0.219079
1405.2064,0.200736
1407.0700,0.176144
1408.9337,0.151863
1410.7974,0.130050
1412.6610,0.114862
1414.5247,0.107726
1416.3884,0.107002
1418.2520,0.112769
1420.1157,0.123116
1421.9794,0.126939
1423.8431,0.121919
1425.7067,0.108155
1427.5704,0.094962
1429.4341,0.087846
1431.2977,0.085771
1433.1614,0.086372
1435.0251,0.089381
1436.8887,0.095775
1438.7524,0.099121
1440.6161,0.099333
1442.4797,0.100738
1444.3434,0.102176
1446.2071,0.103571
1448.0707,0.104810
1449.9344,0.103413
1451.7981,0.100013
1453.6618,0.096569
1455.5254,0.095885
1457.3891,0.101501
1459.2528,0.104206
1461.1164,0.102369
1462.9801,0.102558
1464.8438,0.104674
1466.7074,0.104475
1468.5711,0.101604
1470.4348,0.100195
1472.2984,0.101823
1474.1621,0.103230
1476.0258,0.102331
1477.8895,0.101972
1479.7531,0.102078
1481.6168,0.103489
1483.4805,0.104763
1485.3441,0.105835
1487.2078,0.108529
1489.0715,0.113470
1490.9351,0.117810
1492.7988,0.117876
1494.6625,0.118304
1496.5261,0.123505
1498.3898,0.129110
1500.2535,0.130693
1502.1171,0.130394
1503.9808,0.130416
1505.8445,0.135674
1507.7082,0.148199
1509.5718,0.147283
1511.4355,0.145143
1513.2992,0.144668
1515.1628,0.144500
1517.0265,0.145009
1518.8902,0.143889
1520.7538,0.143733
1522.6175,0.144986
1524.4812,0.143164
1526.3448,0.143144
1528.2085,0.143266
1530.0722,0.142314
1531.9359,0.143423
1533.7995,0.147741
1535.6632,0.148481
1537.5269,0.147728
1539.3905,0.154199
1541.2542,0.166411
1543.1179,0.169094
1544.9815,0.172227
1546.8452,0.174926
1548.7089,0.177961
1550.5725,0.183572
1552.4362,0.187468
1554.2999,0.190633
1556.1635,0.195054
1558.0272,0.203950
1559.8909,0.225007
1561.7546,0.221277
1563.6182,0.218885
1565.4819,0.222682
1567.3456,0.227210
1569.2092,0.233888
1571.0729,0.241029
1572.9366,0.241967
1574.8002,0.246210
1576.6639,0.256840
1578.5276,0.261666
1580.3912,0.261677
1582.2549,0.263578
1584.1186,0.264867
1585.9822,0.264854
1587.8459,0.263330
1589.7096,0.260558
1591.5733,0.256693
1593.4369,0.252504
1595.3006,0.248102
1597.1643,0.243551
1599.0279,0.239105
1600.8916,0.235004
1602.7553,0.231296
1604.6189,0.227902
1606.4826,0.224587
1608.3463,0.220870
1610.2099,0.216117
1612.0736,0.209840
1613.9373,0.202458
1615.8010,0.193982
1617.6646,0.183029
1619.5283,0.173597
1621.3920,0.166045
1623.2556,0.156371
1625.1193,0.145937
1626.9830,0.136171
1628.8466,0.124327
1630.7103,0.112651
1632.5740,0.103190
1634.4376,0.093648
1636.3013,0.083037
1638.1650,0.077337
1640.0286,0.076016
1641.8923,0.074864
1643.7560,0.075071
1645.6197,0.077216
1647.4833,0.081399
1649.3470,0.083219
1651.2107,0.085081
1653.0743,0.091573
1654.9380,0.097906
1656.8017,0.096862
1658.6653,0.096928
1660.5290,0.096865
1662.3927,0.096189
1664.2563,0.093983
1666.1200,0.091235
1667.9837,0.088924
1669.8474,0.087216
1671.7110,0.086266
1673.5747,0.087124
1675.4384,0.090357
1677.3020,0.094849
1679.1657,0.098339
1681.0294,0.103435
1682.8930,0.109077
1684.7567,0.117318
1686.6204,0.119844
1688.4840,0.117585
1690.3477,0.114552
1692.2114,0.110293
1694.0750,0.105445
1695.9387,0.100029
1697.8024,0.094385
1699.6661,0.089963
1701.5297,0.081436
1703.3934,0.074453
1705.2571,0.065748
1707.1207,0.054817
1708.9844,0.047464
1710.8481,0.042113
1712.7117,0.037748
1714.5754,0.035019
1716.4391,0.032828
1718.3027,0.031559
1720.1664,0.030371
1722.0301,0.029264
1723.8937,0.027219
1725.7574,0.024884
1727.6211,0.022585
1729.4848,0.020554
1731.3484,0.018826
1733.2121,0.017805
1735.0758,0.016674
1736.9394,0.015992
1738.8031,0.015403
1740.6668,0.015042
1742.5304,0.014655
1744.3941,0.014434
1746.2578,0.014102
1748.1214,0.013771
1749.9851,0.013144
1751.8488,0.012692
1753.7125,0.012245
1755.5761,0.012224
1757.4398,0.012126
1759.3035,0.011967
1761.1671,0.011788
1763.0308,0.011770
1764.8945,0.011546
1766.7581,0.011536
1768.6218,0.011416
1770.4855,0.011240
1772.3491,0.011066
1774.2128,0.011068
1776.0765,0.010831
1777.9401,0.010899
1779.8038,0.011018
1781.6675,0.011170
1783.5312,0.011141
1785.3948,0.011247
1787.2585,0.011102
1789.1222,0.011111
1790.9858,0.011068
1792.8495,0.011170
1794.7132,0.011245
1796.5768,0.011296
1798.4405,0.011120
1800.3042,0.011306
1802.1678,0.011421
1804.0315,0.011487
1805.8952,0.011454
1807.7589,0.011496
1809.6225,0.011445
1811.4862,0.011461
1813.3499,0.011343
1815.2135,0.011288
1817.0772,0.011172
1818.9409,0.011333
1820.8045,0.011406
1822.6682,0.011317
1824.5319,0.011074
1826.3955,0.011083
1828.2592,0.011079
1830.1229,0.011168
1831.9865,0.010834
1833.8502,0.010665
1835.7139,0.010779
1837.5776,0.011068
1839.4412,0.010934
1841.3049,0.010885
1843.1686,0.010958
1845.0322,0.011083
1846.8959,0.010852
1848.7596,0.010958
1850.6232,0.011153
1852.4869,0.011219
1854.3506,0.011064
1856.2142,0.011142
1858.0779,0.011157
1859.9416,0.011229
1861.8052,0.011118
1863.6689,0.011159
1865.5326,0.010974
1867.3963,0.011024
1869.2599,0.010935
1871.1236,0.010846
1872.9873,0.010775
1874.8509,0.010892
1876.7146,0.010909
1878.5783,0.011167
1880.4419,0.011183
1882.3056,0.011285
1884.1693,0.010986
1886.0329,0.010890
1887.8966,0.010953
1889.7603,0.011044
1891.6240,0.010776
1893.4876,0.010830
1895.3513,0.010824
1897.2150,0.011057
1899.0786,0.011179
1900.9423,0.010793
1902.8060,0.010312
1904.6696,0.011049
1906.5333,0.011431
1908.3970,0.011000
1910.2606,0.010452
1912.1243,0.010699
1913.9880,0.011039
1915.8516,0.011158
1917.7153,0.010535
1919.5790,0.010536
1921.4427,0.010267
1923.3063,0.010543
1925.1700,0.011196
1927.0337,0.011253
1928.8973,0.010653
1930.7610,0.010869
1932.6247,0.011029
1934.4883,0.010754
1936.3520,0.010525
1938.2157,0.010574
1940.0793,0.010091
1941.9430,0.010038
1943.8067,0.009597
1945.6704,0.009947
1947.5340,0.010272
1949.3977,0.010345
1951.2614,0.009408
1953.1250,0.009071
1954.9887,0.008871
1956.8524,0.008240
1958.7160,0.007237
1960.5797,0.007008
1962.4434,0.006369
1964.3070,0.006098
1966.1707,0.004152
1968.0344,0.003786
1969.8980,0.004231
1971.7617,0.003466
1973.6254,0.003581
1975.4891,0.004668
1977.3527,0.004443
1979.2164,0.005512
1981.0801,0.006470
1982.9437,0.007126
1984.8074,0.006185
1986.6711,0.006452
1988.5347,0.006646
1990.3984,0.007068
1992.2621,0.007039
1994.1257,0.008142
1995.9894,0.008631
1997.8531,0.008594
1999.7167,0.008367
2001.5804,0.009233
2003.4441,0.008007
2005.3078,0.006646
2007.1714,0.005459
2009.0351,0.005748
2010.8988,0.006396
2012.7624,0.006409
2014.6261,0.006049
2016.4898,0.006227
2018.3534,0.005476
2020.2171,0.005199
2022.0808,0.004809
2023.9444,0.004624
2025.8081,0.004911
2027.6718,0.005761
2029.5355,0.005775
2031.3991,0.006074
2033.2628,0.005417
2035.1265,0.006198
2036.9901,0.007295
2038.8538,0.008041
2040.7175,0.007510
2042.5811,0.008379
2044.4448,0.009156
2046.3085,0.009740
2048.1721,0.009573
2050.0358,0.010401
2051.8995,0.011086
2053.7631,0.011863
2055.6268,0.011843
2057.4905,0.012135
2059.3542,0.012535
2061.2178,0.012882
2063.0815,0.012360
2064.9452,0.012903
2066.8088,0.012962
2068.6725,0.013246
2070.5362,0.013595
2072.3998,0.013790
2074.2635,0.014153
2076.1272,0.014690
2077.9908,0.015071
2079.8545,0.015127
2081.7182,0.015154
2083.5819,0.015639
2085.4455,0.015571
2087.3092,0.015882
2089.1729,0.015902
2091.0365,0.015882
2092.9002,0.015966
2094.7639,0.015957
2096.6275,0.016079
2098.4912,0.016402
2100.3549,0.016396
2102.2185,0.016517
2104.0822,0.016691
2105.9459,0.016876
2107.8095,0.016396
2109.6732,0.016281
2111.5369,0.016946
2113.4006,0.017671
2115.2642,0.017358
2117.1279,0.017222
2118.9916,0.016704
2120.8552,0.017043
2122.7189,0.017500
2124.5826,0.017258
2126.4462,0.016600
2128.3099,0.016734
2130.1736,0.016705
2132.0372,0.016550
2133.9009,0.015999
2135.7646,0.015342
2137.6282,0.015126
2139.4919,0.014701
2141.3556,0.013250
2143.2193,0.013065
2145.0829,0.012495
2146.9466,0.011730
2148.8103,0.011728
2150.6739,0.012242
2152.5376,0.011214
2154.4013,0.010709
2156.2649,0.008320
2158.1286,0.006966
2159.9923,0.007402
2161.8559,0.008934
2163.7196,0.007342
2165.5833,0.007942
2167.4470,0.009547
2169.3106,0.010291
2171.1743,0.009252
2173.0380,0.009286
2174.9016,0.010851
2176.7653,0.011192
2178.6290,0.011380
2180.4926,0.011978
2182.3563,0.010506
2184.2200,0.010898
2186.0836,0.012013
2187.9473,0.012973
2189.8110,0.012959
2191.6746,0.012677
2193.5383,0.011909
2195.4020,0.012935
2197.2657,0.014007
2199.1293,0.013927
2200.9930,0.013733
2202.8567,0.014881
2204.7203,0.015051
2206.5840,0.015864
2208.4477,0.016775
2210.3113,0.016629
2212.1750,0.015131
2214.0387,0.014644
2215.9023,0.014627
2217.7660,0.015127
2219.6297,0.015938
2221.4934,0.016691
2223.3570,0.016895
2225.2207,0.016964
2227.0844,0.016486
2228.9480,0.016231
2230.8117,0.017055
2232.6754,0.017577
2234.5390,0.017965
2236.4027,0.018721
2238.2664,0.018300
2240.1300,0.018022
2241.9937,0.018279
2243.8574,0.017855
2245.7210,0.017317
2247.5847,0.018284
2249.4484,0.019072
2251.3121,0.019235
2253.1757,0.019571
2255.0394,0.020367
2256.9031,0.020102
2258.7667,0.020019
2260.6304,0.020209
2262.4941,0.020142
2264.3577,0.020427
2266.2214,0.021549
2268.0851,0.021858
2269.9487,0.021313
2271.8124,0.021118
2273.6761,0.022380
2275.5397,0.023428
2277.4034,0.023563
2279.2671,0.023619
2281.1308,0.023806
2282.9944,0.023965
2284.8581,0.024293
2286.7218,0.024458
2288.5854,0.024827
2290.4491,0.024977
2292.3128,0.024792
2294.1764,0.024682
2296.0401,0.024558
2297.9038,0.024386
2299.7674,0.024891
2301.6311,0.024899
2303.4948,0.024669
2305.3585,0.024814
2307.2221,0.025283
2309.0858,0.025226
2310.9495,0.025221
2312.8131,0.025186
2314.6768,0.024950
2316.5405,0.024977
2318.4041,0.025064
2320.2678,0.024907
2322.1315,0.024777
2323.9951,0.025149
2325.8588,0.025073
2327.7225,0.024136
2329.5861,0.023785
2331.4498,0.023625
2333.3135,0.023507
2335.1772,0.023618
2337.0408,0.023601
2338.9045,0.023448
2340.7682,0.023957
2342.6318,0.024395
2344.4955,0.024161
2346.3592,0.023909
2348.2228,0.023860
2350.0865,0.023242
2351.9502,0.022841
2353.8138,0.022800
2355.6775,0.023236
2357.5412,0.023059
2359.4049,0.022497
2361.2685,0.022949
2363.1322,0.023512
2364.9959,0.023644
2366.8595,0.023803
2368.7232,0.023853
2370.5869,0.024283
2372.4505,0.024802
2374.3142,0.025240
2376.1779,0.025681
2378.0415,0.025835
2379.9052,0.025555
2381.7689,0.025577
2383.6325,0.025618
2385.4962,0.025642
2387.3599,0.025786
2389.2236,0.025975
2391.0872,0.025895
2392.9509,0.025818
2394.8146,0.026095
2396.6782,0.026605
2398.5419,0.026563
2400.4056,0.026373
2402.2692,0.026500
2404.1329,0.026653
2405.9966,0.026588
2407.8602,0.026735
2409.7239,0.026917
2411.5876,0.027101
2413.4512,0.027072
2415.3149,0.027064
2417.1786,0.027272
2419.0423,0.027477
2420.9059,0.027737
2422.7696,0.028280
2424.6333,0.028478
2426.4969,0.027933
2428.3606,0.027845
2430.2243,0.028591
2432.0879,0.028455
2433.9516,0.028077
2435.8153,0.028177
2437.6789,0.028268
2439.5426,0.028211
2441.4063,0.028691
2443.2700,0.028985
2445.1336,0.029094
2446.9973,0.028845
2448.8610,0.028556
2450.7246,0.028719
2452.5883,0.028832
2454.4520,0.028804
2456.3156,0.028786
2458.1793,0.028549
2460.0430,0.028684
2461.9066,0.028849
2463.7703,0.028751
2465.6340,0.028594
2467.4976,0.028374
2469.3613,0.028395
2471.2250,0.028536
2473.0887,0.028623
2474.9523,0.028577
2476.8160,0.028840
2478.6797,0.029301
2480.5433,0.029237
2482.4070,0.029077
2484.2707,0.029341
2486.1343,0.029751
2487.9980,0.029747
2489.8617,0.029920
2491.7253,0.029957
2493.5890,0.030183
2495.4527,0.030964
2497.3164,0.031256
2499.1800,0.031150
2501.0437,0.031207
2502.9074,0.031233
2504.7710,0.031423
2506.6347,0.031416
2508.4984,0.031480
2510.3620,0.031903
2512.2257,0.032216
2514.0894,0.032223
2515.9530,0.032133
2517.8167,0.032076
2519.6804,0.032411
2521.5440,0.033113
2523.4077,0.033458
2525.2714,0.033157
2527.1351,0.033277
