Wavenumber,Intensity
650.4205,0.222164
652.2841,0.215344
654.1478,0.214600
656.0115,0.215451
657.8751,0.212794
659.7388,0.210215
661.6025,0.210753
663.4661,0.210728
665.3298,0.211693
667.1935,0.213411
669.0571,0.213099
670.9208,0.207563
672.7845,0.202361
674.6481,0.198768
676.5118,0.195469
678.3755,0.191623
680.2392,0.190829
682.1028,0.190687
683.9665,0.191099
685.8302,0.190326
687.6938,0.190001
689.5575,0.190138
691.4212,0.191998
693.2848,0.193327
695.1485,0.193603
697.0122,0.194895
698.8758,0.197687
700.7395,0.199928
702.6032,0.199783
704.4669,0.196810
706.3305,0.192191
708.1942,0.185409
710.0579,0.177617
711.9215,0.169843
713.7852,0.162813
715.6489,0.155225
717.5125,0.145730
719.3762,0.135806
721.2399,0.128195
723.1035,0.122702
724.9672,0.118191
726.8309,0.113393
728.6945,0.109232
730.5582,0.105438
732.4219,0.101441
734.2856,0.098558
736.1492,0.096639
738.0129,0.095300
739.8766,0.095600
741.7402,0.097870
743.6039,0.100623
745.4676,0.102289
747.3312,0.102923
749.1949,0.102851
751.0586,0.102508
752.9222,0.101728
754.7859,0.100218
756.6496,0.098096
758.5132,0.096868
760.3769,0.097028
762.2406,0.097762
764.1043,0.099135
765.9679,0.100981
767.8316,0.102049
769.6953,0.101651
771.5589,0.100681
773.4226,0.100864
775.2863,0.101142
777.1499,0.099281
779.0136,0.096876
780.8773,0.095973
782.7409,0.096675
784.6046,0.098172
786.4683,0.099524
788.3320,0.100612
790.1956,0.102361
792.0593,0.104966
793.9230,0.107372
795.7866,0.109434
797.6503,0.111728
799.5140,0.113760
801.3776,0.115091
803.2413,0.115325
805.1050,0.114751
806.9686,0.113712
808.8323,0.111625
810.6960,0.108798
812.5596,0.106042
814.4233,0.103554
816.2870,0.101117
818.1507,0.098935
820.0143,0.097755
821.8780,0.097501
823.7417,0.097072
825.6053,0.096908
827.4690,0.098606
829.3327,0.100608
831.1963,0.097530
833.0600,0.087308
834.9237,0.075938
836.7873,0.068605
838.6510,0.065275
840.5147,0.064959
842.3784,0.066608
844.2420,0.069296
846.1057,0.071321
847.9694,0.070563
849.8330,0.067216
851.6967,0.063290
853.5604,0.060520
855.4240,0.059169
857.2877,0.058402
859.1514,0.057786
861.0150,0.057385
862.8787,0.057192
864.7424,0.057276
866.6060,0.057412
868.4697,0.057599
870.3334,0.057869
872.1971,0.058062
874.0607,0.058098
875.9244,0.058205
877.7881,0.058270
879.6517,0.058316
881.5154,0.058625
883.3791,0.059253
885.2427,0.060152
887.1064,0.061429
888.9701,0.062565
890.8337,0.063046
892.6974,0.063213
894.5611,0.063712
896.4247,0.064929
898.2884,0.067087
900.1521,0.069684
902.0158,0.071927
903.8794,0.073734
905.7431,0.076099
907.6068,0.080098
909.4704,0.086069
911.3341,0.094060
913.1978,0.103475
915.0614,0.108594
916.9251,0.100899
918.7888,0.084526
920.6524,0.072086
922.5161,0.066943
924.3798,0.064957
926.2435,0.063228
928.1071,0.061598
929.9708,0.060755
931.8345,0.060710
933.6981,0.061045
935.5618,0.061855
937.4255,0.063343
939.2891,0.065456
941.1528,0.068149
943.0165,0.070558
944.8801,0.071234
946.7438,0.070668
948.6075,0.069788
950.4711,0.068671
952.3348,0.067995
954.1985,0.068336
956.0622,0.069484
957.9258,0.071190
959.7895,0.073187
961.6532,0.075239
963.5168,0.077103
965.3805,0.078822
967.2442,0.080954
969.1078,0.083827
970.9715,0.087112
972.8352,0.091149
974.6988,0.097467
976.5625,0.108001
978.4262,0.125438
980.2899,0.149117
982.1535,0.157943
984.0172,0.131220
985.8809,0.096952
987.7445,0.082054
989.6082,0.080384
991.4719,0.081637
993.3355,0.083229
995.1992,0.084790
997.0629,0.086191
998.9265,0.087589
1000.7902,0.088835
1002.6539,0.089693
1004.5175,0.090220
1006.3812,0.090364
1008.2449,0.090206
1010.1086,0.090163
1011.9722,0.090467
1013.8359,0.091086
1015.6996,0.092116
1017.5632,0.093446
1019.4269,0.094917
1021.2906,0.096710
1023.1542,0.098864
1025.0179,0.101222
1026.8816,0.103321
1028.7452,0.104902
1030.6089,0.106208
1032.4726,0.107370
1034.3362,0.108220
1036.1999,0.108873
1038.0636,0.109859
1039.9273,0.111698
1041.7909,0.114629
1043.6546,0.118590
1045.5183,0.122961
1047.3819,0.126239
1049.2456,0.126104
1051.1093,0.120570
1052.9729,0.110967
1054.8366,0.101919
1056.7003,0.096595
1058.5639,0.094875
1060.4276,0.095291
1062.2913,0.096438
1064.1550,0.097313
1066.0186,0.097546
1067.8823,0.097557
1069.7460,0.098000
1071.6096,0.099250
1073.4733,0.101233
1075.3370,0.103591
1077.2006,0.106098
1079.0643,0.108507
1080.9280,0.111169
1082.7916,0.114220
1084.6553,0.117127
1086.5190,0.119664
1088.3826,0.122130
1090.2463,0.125248
1092.1100,0.129463
1093.9737,0.134487
1095.8373,0.140247
1097.7010,0.146839
1099.5647,0.154144
1101.4283,0.161791
1103.2920,0.168830
1105.1557,0.173753
1107.0193,0.174518
1108.8830,0.169791
1110.7467,0.160073
1112.6103,0.147253
1114.4740,0.133886
1116.3377,0.122169
1118.2014,0.112913
1120.0650,0.106230
1121.9287,0.101934
1123.7924,0.099284
1125.6560,0.097392
1127.5197,0.095620
1129.3834,0.093917
1131.2470,0.092412
1133.1107,0.091057
1134.9744,0.089825
1136.8380,0.088573
1138.7017,0.087217
1140.5654,0.086040
1142.4290,0.085258
1144.2927,0.084752
1146.1564,0.084259
1148.0201,0.083578
1149.8837,0.082838
1151.7474,0.082329
1153.6111,0.082251
1155.4747,0.082677
1157.3384,0.083485
1159.2021,0.084595
1161.0657,0.086184
1162.9294,0.088495
1164.7931,0.091615
1166.6567,0.095654
1168.5204,0.100442
1170.3841,0.105172
1172.2477,0.108265
1174.1114,0.107823
1175.9751,0.103465
1177.8388,0.097243
1179.7024,0.091956
1181.5661,0.089235
1183.4298,0.088660
1185.2934,0.088776
1187.1571,0.088693
1189.0208,0.087931
1190.8844,0.085871
1192.7481,0.082887
1194.6118,0.080400
1196.4754,0.079069
1198.3391,0.078565
1200.2028,0.078512
1202.0665,0.078620
1203.9301,0.078746
1205.7938,0.078901
1207.6575,0.079113
1209.5211,0.079438
1211.3848,0.079783
1213.2485,0.080181
1215.1121,0.080677
1216.9758,0.081237
1218.8395,0.081905
1220.7031,0.082543
1222.5668,0.083225
1224.4305,0.084111
1226.2941,0.085028
1228.1578,0.085927
1230.0215,0.086884
1231.8852,0.087909
1233.7488,0.089195
1235.6125,0.090725
1237.4762,0.092038
1239.3398,0.092804
1241.2035,0.092817
1243.0672,0.092304
1244.9308,0.092087
1246.7945,0.092473
1248.6582,0.093126
1250.5218,0.093786
1252.3855,0.094492
1254.2492,0.095392
1256.1129,0.096517
1257.9765,0.097833
1259.8402,0.099365
1261.7039,0.100961
1263.5675,0.102611
1265.4312,0.104505
1267.2949,0.106382
1269.1585,0.107721
1271.0222,0.107874
1272.8859,0.106867
1274.7495,0.106014
1276.6132,0.106329
1278.4769,0.107709
1280.3405,0.109814
1282.2042,0.112440
1284.0679,0.115493
1285.9316,0.119151
1287.7952,0.123801
1289.6589,0.129359
1291.5226,0.135675
1293.3862,0.142487
1295.2499,0.148454
1297.1136,0.152232
1298.9772,0.154886
1300.8409,0.159507
1302.7046,0.166860
1304.5682,0.173986
1306.4319,0.175741
1308.2956,0.166736
1310.1592,0.147396
1312.0229,0.126885
1313.8866,0.113279
1315.7503,0.107791
1317.6139,0.107397
1319.4776,0.108965
1321.3413,0.110774
1323.2049,0.113607
1325.0686,0.118202
1326.9323,0.123344
1328.7959,0.127219
1330.6596,0.128448
1332.5233,0.127432
1334.3869,0.126635
1336.2506,0.128078
1338.1143,0.132048
1339.9780,0.136821
1341.8416,0.138755
1343.7053,0.138600
1345.5690,0.139136
1347.4326,0.141028
1349.2963,0.143523
1351.1600,0.144645
1353.0236,0.144833
1354.8873,0.146515
1356.7510,0.149736
1358.6146,0.152693
1360.4783,0.155482
1362.3420,0.159321
1364.2056,0.161353
1366.0693,0.161399
1367.9330,0.164782
1369.7967,0.170785
1371.6603,0.175335
1373.5240,0.179392
1375.3877,0.182630
1377.2513,0.185638
1379.1150,0.192784
1380.9787,0.202963
1382.8423,0.213159
1384.7060,0.222853
1386.5697,0.232635
1388.4333,0.240765
1390.2970,0.244259
1392.1607,0.246905
1394.0244,0.249106
1395.8880,0.245413
1397.7517,0.234984
1399.6154,0.222183
1401.4790,0.210514
1403.3427,0.200538
1405.2064,0.186103
1407.0700,0.165875
1408.9337,0.145492
1410.7974,0.127044
1412.6610,0.113514
1414.5247,0.105935
1416.3884,0.103166
1418.2520,0.105729
1420.1157,0.111998
1421.9794,0.114007
1423.8431,0.110336
1425.7067,0.099884
1427.5704,0.089075
1429.4341,0.082829
1431.2977,0.080619
1433.1614,0.081021
1435.0251,0.084246
1436.8887,0.091076
1438.7524,0.094250
1440.6161,0.093506
1442.4797,0.093741
1444.3434,0.094557
1446.2071,0.095936
1448.0707,0.097634
1449.9344,0.097179
1451.7981,0.095156
1453.6618,0.093302
1455.5254,0.093466
1457.3891,0.097737
1459.2528,0.098654
1461.1164,0.097037
1462.9801,0.097825
1464.8438,0.100695
1466.7074,0.101293
1468.5711,0.099268
1470.4348,0.098723
1472.2984,0.100458
1474.1621,0.100751
1476.0258,0.098942
1477.8895,0.098001
1479.7531,0.098152
1481.6168,0.100169
1483.4805,0.102104
1485.3441,0.103782
1487.2078,0.107300
1489.0715,0.113232
1490.9351,0.118267
1492.7988,0.118850
1494.6625,0.120254
1496.5261,0.126663
1498.3898,0.133032
1500.2535,0.135265
1502.1171,0.135738
1503.9808,0.136514
1505.8445,0.142603
1507.7082,0.154385
1509.5718,0.151764
1511.4355,0.148580
1513.2992,0.146831
1515.1628,0.145066
1517.0265,0.143221
1518.8902,0.139743
1520.7538,0.137708
1522.6175,0.135683
1524.4812,0.131732
1526.3448,0.129995
1528.2085,0.128387
1530.0722,0.126540
1531.9359,0.127057
1533.7995,0.130146
1535.6632,0.130036
1537.5269,0.129615
1539.3905,0.136400
1541.2542,0.148403
1543.1179,0.151113
1544.9815,0.154356
1546.8452,0.157406
1548.7089,0.160827
1550.5725,0.167040
1552.4362,0.171857
1554.2999,0.175687
1556.1635,0.180413
1558.0272,0.189893
1559.8909,0.210462
1561.7546,0.205545
1563.6182,0.202864
1565.4819,0.206161
1567.3456,0.209992
1569.2092,0.216006
1571.0729,0.222134
1572.9366,0.222355
1574.8002,0.226095
1576.6639,0.235500
1578.5276,0.238711
1580.3912,0.238348
1582.2549,0.240235
1584.1186,0.240960
1585.9822,0.239613
1587.8459,0.236388
1589.7096,0.232093
1591.5733,0.227085
1593.4369,0.222193
1595.3006,0.217650
1597.1643,0.213407
1599.0279,0.209689
1600.8916,0.206944
1602.7553,0.205033
1604.6189,0.203090
1606.4826,0.200885
1608.3463,0.198112
1610.2099,0.193746
1612.0736,0.187270
1613.9373,0.180054
1615.8010,0.172788
1617.6646,0.162918
1619.5283,0.153757
1621.3920,0.147485
1623.2556,0.139825
1625.1193,0.130728
1626.9830,0.122185
1628.8466,0.111948
1630.7103,0.101687
1632.5740,0.093412
1634.4376,0.085317
1636.3013,0.076163
1638.1650,0.070092
1640.0286,0.067977
1641.8923,0.066166
1643.7560,0.065581
1645.6197,0.066701
1647.4833,0.069034
1649.3470,0.069562
1651.2107,0.071230
1653.0743,0.076461
1654.9380,0.080259
1656.8017,0.079144
1658.6653,0.079453
1660.5290,0.079475
1662.3927,0.078970
1664.2563,0.077202
1666.1200,0.075068
1667.9837,0.073452
1669.8474,0.072411
1671.7110,0.071297
1673.5747,0.071681
1675.4384,0.074240
1677.3020,0.077336
1679.1657,0.079698
1681.0294,0.083578
1682.8930,0.087973
1684.7567,0.094583
1686.6204,0.096748
1688.4840,0.095532
1690.3477,0.093758
1692.2114,0.090585
1694.0750,0.087161
1695.9387,0.083673
1697.8024,0.079416
1699.6661,0.076286
1701.5297,0.069666
1703.3934,0.063660
1705.2571,0.056836
1707.1207,0.048079
1708.9844,0.041914
1710.8481,0.037478
1712.7117,0.033887
1714.5754,0.031650
1716.4391,0.029864
1718.3027,0.028660
1720.1664,0.027493
1722.0301,0.026743
1723.8937,0.025230
1725.7574,0.023096
1727.6211,0.021011
1729.4848,0.019415
1731.3484,0.018087
1733.2121,0.017307
1735.0758,0.016045
1736.9394,0.015435
1738.8031,0.015308
1740.6668,0.015074
1742.5304,0.014519
1744.3941,0.014264
1746.2578,0.013959
1748.1214,0.013753
1749.9851,0.013316
1751.8488,0.012982
1753.7125,0.012592
1755.5761,0.012508
1757.4398,0.012372
1759.3035,0.012299
1761.1671,0.012235
1763.0308,0.012212
1764.8945,0.012022
1766.7581,0.012106
1768.6218,0.011769
1770.4855,0.011500
1772.3491,0.011492
1774.2128,0.011748
1776.0765,0.011668
1777.9401,0.011607
1779.8038,0.011617
1781.6675,0.011829
1783.5312,0.011676
1785.3948,0.011775
1787.2585,0.011761
1789.1222,0.011702
1790.9858,0.011816
1792.8495,0.012054
1794.7132,0.011830
1796.5768,0.011847
1798.4405,0.011722
1800.3042,0.011813
1802.1678,0.011927
1804.0315,0.011947
1805.8952,0.011855
1807.7589,0.011983
1809.6225,0.012001
1811.4862,0.012055
1813.3499,0.011887
1815.2135,0.011851
1817.0772,0.011904
1818.9409,0.012072
1820.8045,0.012042
1822.6682,0.011975
1824.5319,0.011822
1826.3955,0.011793
1828.2592,0.011640
1830.1229,0.011692
1831.9865,0.011560
1833.8502,0.011597
1835.7139,0.011563
1837.5776,0.011608
1839.4412,0.011478
1841.3049,0.011688
1843.1686,0.011854
1845.0322,0.011746
1846.8959,0.011474
1848.7596,0.011668
1850.6232,0.011773
1852.4869,0.012024
1854.3506,0.011919
1856.2142,0.011857
1858.0779,0.011924
1859.9416,0.012097
1861.8052,0.011735
1863.6689,0.011836
1865.5326,0.011804
1867.3963,0.011618
1869.2599,0.011781
1871.1236,0.011997
1872.9873,0.011629
1874.8509,0.011577
1876.7146,0.011505
1878.5783,0.011647
1880.4419,0.011650
1882.3056,0.011819
1884.1693,0.011905
1886.0329,0.011839
1887.8966,0.011597
1889.7603,0.011650
1891.6240,0.011307
1893.4876,0.011274
1895.3513,0.011516
1897.2150,0.011747
1899.0786,0.011901
1900.9423,0.011953
1902.8060,0.011625
1904.6696,0.011641
1906.5333,0.011535
1908.3970,0.011439
1910.2606,0.011240
1912.1243,0.011218
1913.9880,0.011092
1915.8516,0.011504
1917.7153,0.011829
1919.5790,0.012190
1921.4427,0.011998
1923.3063,0.011619
1925.1700,0.011123
1927.0337,0.011298
1928.8973,0.011409
1930.7610,0.011826
1932.6247,0.011692
1934.4883,0.011278
1936.3520,0.011109
1938.2157,0.011698
1940.0793,0.011369
1941.9430,0.011690
1943.8067,0.010749
1945.6704,0.009547
1947.5340,0.009570
1949.3977,0.010259
1951.2614,0.009775
1953.1250,0.009010
1954.9887,0.008613
1956.8524,0.008935
1958.7160,0.008515
1960.5797,0.008109
1962.4434,0.007208
1964.3070,0.006178
1966.1707,0.005668
1968.0344,0.006800
1969.8980,0.006429
1971.7617,0.005876
1973.6254,0.005756
1975.4891,0.006058
1977.3527,0.006035
1979.2164,0.007021
1981.0801,0.006377
1982.9437,0.006793
1984.8074,0.007800
1986.6711,0.008130
1988.5347,0.007514
1990.3984,0.007372
1992.2621,0.007681
1994.1257,0.007961
1995.9894,0.007195
1997.8531,0.007874
1999.7167,0.008252
2001.5804,0.008356
2003.4441,0.007956
2005.3078,0.007519
2007.1714,0.007248
2009.0351,0.008196
2010.8988,0.006856
2012.7624,0.005965
2014.6261,0.006356
2016.4898,0.008006
2018.3534,0.007509
2020.2171,0.006839
2022.0808,0.005511
2023.9444,0.005319
2025.8081,0.006148
2027.6718,0.006855
2029.5355,0.006554
2031.3991,0.006895
2033.2628,0.005860
2035.1265,0.006312
2036.9901,0.007637
2038.8538,0.008347
2040.7175,0.008497
2042.5811,0.009422
2044.4448,0.009131
2046.3085,0.009129
2048.1721,0.009215
2050.0358,0.010966
2051.8995,0.012599
2053.7631,0.012639
2055.6268,0.012070
2057.4905,0.012981
2059.3542,0.013280
2061.2178,0.013415
2063.0815,0.013868
2064.9452,0.014447
2066.8088,0.013908
2068.6725,0.014381
2070.5362,0.015334
2072.3998,0.015564
2074.2635,0.015431
2076.1272,0.016028
2077.9908,0.016080
2079.8545,0.016214
2081.7182,0.016498
2083.5819,0.017224
2085.4455,0.017667
2087.3092,0.017398
2089.1729,0.017040
2091.0365,0.017715
2092.9002,0.017612
2094.7639,0.017157
2096.6275,0.017326
2098.4912,0.017655
2100.3549,0.017255
2102.2185,0.017345
2104.0822,0.018002
2105.9459,0.018483
2107.8095,0.018606
2109.6732,0.018945
2111.5369,0.018895
2113.4006,0.018800
2115.2642,0.018582
2117.1279,0.018563
2118.9916,0.018510
2120.8552,0.019247
2122.7189,0.019671
2124.5826,0.019670
2126.4462,0.018416
2128.3099,0.017699
2130.1736,0.018237
2132.0372,0.017826
2133.9009,0.015794
2135.7646,0.015045
2137.6282,0.015495
2139.4919,0.016279
2141.3556,0.015213
2143.2193,0.014168
2145.0829,0.014559
2146.9466,0.013978
2148.8103,0.013064
2150.6739,0.012745
2152.5376,0.010240
2154.4013,0.008740
2156.2649,0.007591
2158.1286,0.006242
2159.9923,0.007100
2161.8559,0.008859
2163.7196,0.008486
2165.5833,0.010241
2167.4470,0.011155
2169.3106,0.011165
2171.1743,0.010211
2173.0380,0.010375
2174.9016,0.010475
2176.7653,0.010339
2178.6290,0.009662
2180.4926,0.010383
2182.3563,0.011583
2184.2200,0.010764
2186.0836,0.009957
2187.9473,0.011441
2189.8110,0.012323
2191.6746,0.012955
2193.5383,0.013260
2195.4020,0.013612
2197.2657,0.013213
2199.1293,0.013520
2200.9930,0.013647
2202.8567,0.014219
2204.7203,0.013818
2206.5840,0.014171
2208.4477,0.014421
2210.3113,0.015082
2212.1750,0.015663
2214.0387,0.015821
2215.9023,0.015790
2217.7660,0.016220
2219.6297,0.016284
2221.4934,0.016371
2223.3570,0.016331
2225.2207,0.016829
2227.0844,0.017040
2228.9480,0.017315
2230.8117,0.016965
2232.6754,0.017367
2234.5390,0.018303
2236.4027,0.018624
2238.2664,0.017626
2240.1300,0.017290
2241.9937,0.017437
2243.8574,0.018160
2245.7210,0.018703
2247.5847,0.018652
2249.4484,0.018551
2251.3121,0.018666
2253.1757,0.018801
2255.0394,0.019486
2256.9031,0.019280
2258.7667,0.018894
2260.6304,0.019299
2262.4941,0.020073
2264.3577,0.020332
2266.2214,0.020886
2268.0851,0.021366
2269.9487,0.021549
2271.8124,0.021739
2273.6761,0.022239
2275.5397,0.022308
2277.4034,0.022298
2279.2671,0.022631
2281.1308,0.023109
2282.9944,0.023223
2284.8581,0.023587
2286.7218,0.023872
2288.5854,0.024231
2290.4491,0.024258
2292.3128,0.024285
2294.1764,0.024444
2296.0401,0.024285
2297.9038,0.024124
2299.7674,0.024176
2301.6311,0.024593
2303.4948,0.024920
2305.3585,0.024782
2307.2221,0.025002
2309.0858,0.025091
2310.9495,0.024783
2312.8131,0.024417
2314.6768,0.024701
2316.5405,0.025004
2318.4041,0.024955
2320.2678,0.024869
2322.1315,0.024997
2323.9951,0.025036
2325.8588,0.024622
2327.7225,0.023859
2329.5861,0.023657
2331.4498,0.023968
2333.3135,0.024203
2335.1772,0.024239
2337.0408,0.024178
2338.9045,0.024173
2340.7682,0.024560
2342.6318,0.024768
2344.4955,0.024788
2346.3592,0.024478
2348.2228,0.024110
2350.0865,0.023848
2351.9502,0.023771
2353.8138,0.023526
2355.6775,0.023305
2357.5412,0.023386
2359.4049,0.023689
2361.2685,0.023835
2363.1322,0.023877
2364.9959,0.024017
2366.8595,0.024179
2368.7232,0.024472
2370.5869,0.024835
2372.4505,0.025140
2374.3142,0.025581
2376.1779,0.025789
2378.0415,0.025817
2379.9052,0.025977
2381.7689,0.026108
2383.6325,0.026215
2385.4962,0.026106
2387.3599,0.025911
2389.2236,0.025823
2391.0872,0.026075
2392.9509,0.026612
2394.8146,0.026624
2396.6782,0.026407
2398.5419,0.026600
2400.4056,0.027045
2402.2692,0.027028
2404.1329,0.026807
2405.9966,0.027060
2407.8602,0.027709
2409.7239,0.027700
2411.5876,0.027491
2413.4512,0.027914
2415.3149,0.028309
2417.1786,0.028376
2419.0423,0.028180
2420.9059,0.028122
2422.7696,0.028390
2424.6333,0.028476
2426.4969,0.028793
2428.3606,0.029058
2430.2243,0.028912
2432.0879,0.029091
2433.9516,0.029036
2435.8153,0.028885
2437.6789,0.029141
2439.5426,0.029208
2441.4063,0.029373
2443.2700,0.029439
2445.1336,0.029545
2446.9973,0.029647
2448.8610,0.029594
2450.7246,0.029799
2452.5883,0.029756
2454.4520,0.029385
2456.3156,0.029569
2458.1793,0.029792
2460.0430,0.029907
2461.9066,0.029817
2463.7703,0.029820
2465.6340,0.030004
2467.4976,0.030168
2469.3613,0.029788
2471.2250,0.029372
2473.0887,0.029616
2474.9523,0.029990
2476.8160,0.030054
2478.6797,0.030357
2480.5433,0.030639
2482.4070,0.031056
2484.2707,0.031302
2486.1343,0.031195
2487.9980,0.031235
2489.8617,0.031489
2491.7253,0.031695
2493.5890,0.031745
2495.4527,0.031961
2497.3164,0.032282
2499.1800,0.032696
2501.0437,0.032850
2502.9074,0.032846
2504.7710,0.032833
2506.6347,0.033135
2508.4984,0.033517
2510.3620,0.033690
2512.2257,0.033984
2514.0894,0.034245
2515.9530,0.034186
2517.8167,0.034476
2519.6804,0.034712
2521.5440,0.034642
2523.4077,0.035051
2525.2714,0.035358
2527.1351,0.035340
