Wavenumber,Intensity
650.4205,0.267606
652.2841,0.261315
654.1478,0.254819
656.0115,0.249236
657.8751,0.245695
659.7388,0.241111
661.6025,0.237988
663.4661,0.235805
665.3298,0.232611
667.1935,0.232891
669.0571,0.236243
670.9208,0.232723
672.7845,0.229615
674.6481,0.227653
676.5118,0.227194
678.3755,0.226603
680.2392,0.227808
682.1028,0.227381
683.9665,0.226666
685.8302,0.225989
687.6938,0.227242
689.5575,0.229270
691.4212,0.230847
693.2848,0.232642
695.1485,0.234882
697.0122,0.235671
698.8758,0.236341
700.7395,0.236238
702.6032,0.234960
704.4669,0.229962
706.3305,0.222332
708.1942,0.212226
710.0579,0.201140
711.9215,0.190368
713.7852,0.180660
715.6489,0.169814
717.5125,0.159915
719.3762,0.151465
721.2399,0.143449
723.1035,0.137085
724.9672,0.132137
726.8309,0.127042
728.6945,0.122157
730.5582,0.118194
732.4219,0.114073
734.2856,0.109812
736.1492,0.106985
738.0129,0.105463
739.8766,0.105944
741.7402,0.108633
743.6039,0.112120
745.4676,0.114557
747.3312,0.114910
749.1949,0.113755
751.0586,0.112776
752.9222,0.111555
754.7859,0.109689
756.6496,0.108288
758.5132,0.107606
760.3769,0.107219
762.2406,0.106723
764.1043,0.106377
765.9679,0.106671
767.8316,0.107078
769.6953,0.107277
771.5589,0.106916
773.4226,0.106619
775.2863,0.107129
777.1499,0.107199
779.0136,0.106868
780.8773,0.107412
782.7409,0.108768
784.6046,0.110299
786.4683,0.111818
788.3320,0.114117
790.1956,0.116859
792.0593,0.119455
793.9230,0.122209
795.7866,0.125230
797.6503,0.128161
799.5140,0.130285
801.3776,0.131582
803.2413,0.132137
805.1050,0.131443
806.9686,0.129641
808.8323,0.127379
810.6960,0.124431
812.5596,0.120485
814.4233,0.116440
816.2870,0.112649
818.1507,0.109301
820.0143,0.106406
821.8780,0.104605
823.7417,0.103969
825.6053,0.104450
827.4690,0.106540
829.3327,0.107862
831.1963,0.101631
833.0600,0.087301
834.9237,0.074155
836.7873,0.067328
838.6510,0.064949
840.5147,0.064424
842.3784,0.064712
844.2420,0.065339
846.1057,0.065911
847.9694,0.065467
849.8330,0.063783
851.6967,0.062023
853.5604,0.061062
855.4240,0.060478
857.2877,0.059945
859.1514,0.059661
861.0150,0.059551
862.8787,0.059500
864.7424,0.059506
866.6060,0.059372
868.4697,0.059364
870.3334,0.059593
872.1971,0.059580
874.0607,0.059420
875.9244,0.059610
877.7881,0.059990
879.6517,0.060251
881.5154,0.060527
883.3791,0.061003
885.2427,0.061727
887.1064,0.062593
888.9701,0.063287
890.8337,0.063734
892.6974,0.064183
894.5611,0.065041
896.4247,0.066400
898.2884,0.068276
900.1521,0.070456
902.0158,0.072932
903.8794,0.076045
905.7431,0.080089
907.6068,0.085221
909.4704,0.091774
911.3341,0.100625
913.1978,0.111464
915.0614,0.116926
916.9251,0.106544
918.7888,0.085822
920.6524,0.070104
922.5161,0.063367
924.3798,0.061100
926.2435,0.060117
928.1071,0.059717
929.9708,0.059817
931.8345,0.060277
933.6981,0.060974
935.5618,0.061865
937.4255,0.062801
939.2891,0.064099
941.1528,0.065681
943.0165,0.066907
944.8801,0.067576
946.7438,0.067915
948.6075,0.068074
950.4711,0.068376
952.3348,0.068925
954.1985,0.069846
956.0622,0.071088
957.9258,0.072510
959.7895,0.074126
961.6532,0.075932
963.5168,0.077745
965.3805,0.079597
967.2442,0.082063
969.1078,0.085250
970.9715,0.088645
972.8352,0.092941
974.6988,0.099920
976.5625,0.112013
978.4262,0.132855
980.2899,0.161953
982.1535,0.173085
984.0172,0.139252
985.8809,0.096073
987.7445,0.077115
989.6082,0.074323
991.4719,0.075055
993.3355,0.076298
995.1992,0.077671
997.0629,0.078986
998.9265,0.080290
1000.7902,0.081467
1002.6539,0.082338
1004.5175,0.083040
1006.3812,0.083795
1008.2449,0.084537
1010.1086,0.085237
1011.9722,0.086072
1013.8359,0.087085
1015.6996,0.088241
1017.5632,0.089571
1019.4269,0.091025
1021.2906,0.092570
1023.1542,0.094269
1025.0179,0.096228
1026.8816,0.098283
1028.7452,0.100259
1030.6089,0.102199
1032.4726,0.104163
1034.3362,0.106206
1036.1999,0.108484
1038.0636,0.111078
1039.9273,0.114394
1041.7909,0.118867
1043.6546,0.124280
1045.5183,0.129884
1047.3819,0.134208
1049.2456,0.134270
1051.1093,0.127271
1052.9729,0.114943
1054.8366,0.103235
1056.7003,0.096309
1058.5639,0.093757
1060.4276,0.093525
1062.2913,0.094238
1064.1550,0.095207
1066.0186,0.096303
1067.8823,0.097485
1069.7460,0.099040
1071.6096,0.101142
1073.4733,0.103497
1075.3370,0.106048
1077.2006,0.108791
1079.0643,0.111683
1080.9280,0.114806
1082.7916,0.118285
1084.6553,0.122121
1086.5190,0.126070
1088.3826,0.130171
1090.2463,0.134926
1092.1100,0.140610
1093.9737,0.147141
1095.8373,0.154587
1097.7010,0.163044
1099.5647,0.172326
1101.4283,0.182007
1103.2920,0.191054
1105.1557,0.197521
1107.0193,0.199023
1108.8830,0.193612
1110.7467,0.181257
1112.6103,0.164663
1114.4740,0.147418
1116.3377,0.132035
1118.2014,0.119689
1120.0650,0.110575
1121.9287,0.104295
1123.7924,0.100183
1125.6560,0.097323
1127.5197,0.094698
1129.3834,0.092022
1131.2470,0.089641
1133.1107,0.087563
1134.9744,0.085763
1136.8380,0.084323
1138.7017,0.083159
1140.5654,0.082343
1142.4290,0.081882
1144.2927,0.081723
1146.1564,0.081808
1148.0201,0.081906
1149.8837,0.081995
1151.7474,0.082289
1153.6111,0.082885
1155.4747,0.083778
1157.3384,0.084886
1159.2021,0.086317
1161.0657,0.088257
1162.9294,0.090746
1164.7931,0.093984
1166.6567,0.098246
1168.5204,0.103478
1170.3841,0.109011
1172.2477,0.112925
1174.1114,0.112780
1175.9751,0.107822
1177.8388,0.100487
1179.7024,0.094390
1181.5661,0.091031
1183.4298,0.089787
1185.2934,0.089584
1187.1571,0.089537
1189.0208,0.089116
1190.8844,0.088125
1192.7481,0.086750
1194.6118,0.085586
1196.4754,0.085029
1198.3391,0.084933
1200.2028,0.085087
1202.0665,0.085367
1203.9301,0.085704
1205.7938,0.086121
1207.6575,0.086574
1209.5211,0.086993
1211.3848,0.087445
1213.2485,0.087937
1215.1121,0.088469
1216.9758,0.089070
1218.8395,0.089730
1220.7031,0.090433
1222.5668,0.091066
1224.4305,0.091805
1226.2941,0.092670
1228.1578,0.093424
1230.0215,0.094164
1231.8852,0.094952
1233.7488,0.095840
1235.6125,0.096911
1237.4762,0.097940
1239.3398,0.098666
1241.2035,0.099117
1243.0672,0.099548
1244.9308,0.100137
1246.7945,0.100869
1248.6582,0.101818
1250.5218,0.102810
1252.3855,0.103733
1254.2492,0.104913
1256.1129,0.106118
1257.9765,0.107248
1259.8402,0.108824
1261.7039,0.110588
1263.5675,0.112233
1265.4312,0.113930
1267.2949,0.115310
1269.1585,0.115935
1271.0222,0.115840
1272.8859,0.115469
1274.7495,0.115436
1276.6132,0.116112
1278.4769,0.117593
1280.3405,0.119726
1282.2042,0.122228
1284.0679,0.125053
1285.9316,0.128538
1287.7952,0.132804
1289.6589,0.137579
1291.5226,0.142838
1293.3862,0.148779
1295.2499,0.155065
1297.1136,0.161235
1298.9772,0.168108
1300.8409,0.177190
1302.7046,0.187989
1304.5682,0.196998
1306.4319,0.198095
1308.2956,0.184378
1310.1592,0.156733
1312.0229,0.127820
1313.8866,0.108842
1315.7503,0.101439
1317.6139,0.101061
1319.4776,0.103549
1321.3413,0.106708
1323.2049,0.110441
1325.0686,0.115026
1326.9323,0.119879
1328.7959,0.124082
1330.6596,0.126906
1332.5233,0.128288
1334.3869,0.129131
1336.2506,0.130601
1338.1143,0.133523
1339.9780,0.137131
1341.8416,0.138420
1343.7053,0.138327
1345.5690,0.139190
1347.4326,0.141010
1349.2963,0.143425
1351.1600,0.145406
1353.0236,0.147196
1354.8873,0.150144
1356.7510,0.153649
1358.6146,0.156593
1360.4783,0.160215
1362.3420,0.166161
1364.2056,0.171007
1366.0693,0.173109
1367.9330,0.177552
1369.7967,0.183773
1371.6603,0.188669
1373.5240,0.194772
1375.3877,0.201462
1377.2513,0.206327
1379.1150,0.213805
1380.9787,0.223920
1382.8423,0.233920
1384.7060,0.243906
1386.5697,0.256098
1388.4333,0.268999
1390.2970,0.275527
1392.1607,0.278955
1394.0244,0.280367
1395.8880,0.273583
1397.7517,0.259978
1399.6154,0.244225
1401.4790,0.229612
1403.3427,0.216704
1405.2064,0.197610
1407.0700,0.171913
1408.9337,0.146867
1410.7974,0.124641
1412.6610,0.109278
1414.5247,0.102065
1416.3884,0.101360
1418.2520,0.107498
1420.1157,0.118300
1421.9794,0.122803
1423.8431,0.119039
1425.7067,0.106270
1427.5704,0.093136
1429.4341,0.085790
1431.2977,0.083395
1433.1614,0.083712
1435.0251,0.086505
1436.8887,0.092612
1438.7524,0.095656
1440.6161,0.095877
1442.4797,0.097552
1444.3434,0.099337
1446.2071,0.100931
1448.0707,0.102204
1449.9344,0.100776
1451.7981,0.097332
1453.6618,0.093801
1455.5254,0.092984
1457.3891,0.097881
1459.2528,0.099903
1461.1164,0.098212
1462.9801,0.098561
1464.8438,0.100646
1466.7074,0.100296
1468.5711,0.097513
1470.4348,0.096300
1472.2984,0.097860
1474.1621,0.099153
1476.0258,0.098308
1477.8895,0.097966
1479.7531,0.098106
1481.6168,0.099483
1483.4805,0.100510
1485.3441,0.101331
1487.2078,0.103823
1489.0715,0.108467
1490.9351,0.112545
1492.7988,0.112414
1494.6625,0.112454
1496.5261,0.116545
1498.3898,0.120722
1500.2535,0.121607
1502.1171,0.121129
1503.9808,0.121176
1505.8445,0.126310
1507.7082,0.138069
1509.5718,0.136706
1511.4355,0.134574
1513.2992,0.134402
1515.1628,0.134818
1517.0265,0.136130
1518.8902,0.136002
1520.7538,0.136673
1522.6175,0.138583
1524.4812,0.137152
1526.3448,0.137438
1528.2085,0.137845
1530.0722,0.137085
1531.9359,0.138165
1533.7995,0.142152
1535.6632,0.142599
1537.5269,0.141899
1539.3905,0.148338
1541.2542,0.160198
1543.1179,0.162283
1544.9815,0.164658
1546.8452,0.166672
1548.7089,0.169089
1550.5725,0.173934
1552.4362,0.177516
1554.2999,0.180381
1556.1635,0.184274
1558.0272,0.193118
1559.8909,0.213006
1561.7546,0.208790
1563.6182,0.206559
1565.4819,0.210262
1567.3456,0.214555
1569.2092,0.221057
1571.0729,0.227943
1572.9366,0.228713
1574.8002,0.233162
1576.6639,0.244043
1578.5276,0.248552
1580.3912,0.248960
1582.2549,0.251967
1584.1186,0.254643
1585.9822,0.256029
1587.8459,0.255847
1589.7096,0.254613
1591.5733,0.252470
1593.4369,0.249981
1595.3006,0.247001
1597.1643,0.243467
1599.0279,0.239684
1600.8916,0.236027
1602.7553,0.232462
1604.6189,0.229147
1606.4826,0.225898
1608.3463,0.222595
1610.2099,0.218357
1612.0736,0.212702
1613.9373,0.206308
1615.8010,0.199188
1617.6646,0.188383
1619.5283,0.177903
1621.3920,0.170130
1623.2556,0.160536
1625.1193,0.149459
1626.9830,0.139196
1628.8466,0.126900
1630.7103,0.114227
1632.5740,0.104041
1634.4376,0.094258
1636.3013,0.083576
1638.1650,0.077242
1640.0286,0.075260
1641.8923,0.073793
1643.7560,0.073932
1645.6197,0.076168
1647.4833,0.080416
1649.3470,0.082184
1651.2107,0.084356
1653.0743,0.091333
1654.9380,0.097322
1656.8017,0.095853
1658.6653,0.095987
1660.5290,0.096364
1662.3927,0.096099
1664.2563,0.093822
1666.1200,0.091123
1667.9837,0.089057
1669.8474,0.087338
1671.7110,0.086179
1673.5747,0.086770
1675.4384,0.089907
1677.3020,0.094009
1679.1657,0.097328
1681.0294,0.102673
1682.8930,0.108888
1684.7567,0.117717
1686.6204,0.120371
1688.4840,0.118678
1690.3477,0.116558
1692.2114,0.112833
1694.0750,0.108797
1695.9387,0.104223
1697.8024,0.098660
1699.6661,0.094457
1701.5297,0.085420
1703.3934,0.077164
1705.2571,0.067967
1707.1207,0.056292
1708.9844,0.048162
1710.8481,0.042534
1712.7117,0.038098
1714.5754,0.035246
1716.4391,0.033041
1718.3027,0.031776
1720.1664,0.030385
1722.0301,0.029068
1723.8937,0.026986
1725.7574,0.024564
1727.6211,0.022219
1729.4848,0.020318
1731.3484,0.018492
1733.2121,0.017360
1735.0758,0.016181
1736.9394,0.015339
1738.8031,0.014883
1740.6668,0.014751
1742.5304,0.014332
1744.3941,0.013975
1746.2578,0.013527
1748.1214,0.013272
1749.9851,0.012725
1751.8488,0.012281
1753.7125,0.011917
1755.5761,0.011923
1757.4398,0.011915
1759.3035,0.011964
1761.1671,0.011863
1763.0308,0.011851
1764.8945,0.011523
1766.7581,0.011508
1768.6218,0.011522
1770.4855,0.011576
1772.3491,0.011435
1774.2128,0.011312
1776.0765,0.011219
1777.9401,0.011313
1779.8038,0.011283
1781.6675,0.011466
1783.5312,0.011500
1785.3948,0.011659
1787.2585,0.011466
1789.1222,0.011359
1790.9858,0.011600
1792.8495,0.011970
1794.7132,0.011766
1796.5768,0.011755
1798.4405,0.011529
1800.3042,0.011468
1802.1678,0.011596
1804.0315,0.011727
1805.8952,0.011713
1807.7589,0.011987
1809.6225,0.012105
1811.4862,0.012167
1813.3499,0.012060
1815.2135,0.012002
1817.0772,0.011851
1818.9409,0.011987
1820.8045,0.011933
1822.6682,0.011948
1824.5319,0.011907
1826.3955,0.011806
1828.2592,0.011558
1830.1229,0.011708
1831.9865,0.011541
1833.8502,0.011331
1835.7139,0.011058
1837.5776,0.011251
1839.4412,0.011417
1841.3049,0.011578
1843.1686,0.011523
1845.0322,0.011613
1846.8959,0.011536
1848.7596,0.011639
1850.6232,0.011516
1852.4869,0.011609
1854.3506,0.011857
1856.2142,0.012067
1858.0779,0.012018
1859.9416,0.011972
1861.8052,0.011804
1863.6689,0.011905
1865.5326,0.011768
1867.3963,0.011984
1869.2599,0.012221
1871.1236,0.012074
1872.9873,0.011779
1874.8509,0.012100
1876.7146,0.011907
1878.5783,0.011853
1880.4419,0.011872
1882.3056,0.012002
1884.1693,0.011951
1886.0329,0.012031
1887.8966,0.011805
1889.7603,0.011756
1891.6240,0.011714
1893.4876,0.011758
1895.3513,0.011847
1897.2150,0.012095
1899.0786,0.011937
1900.9423,0.012200
1902.8060,0.012203
1904.6696,0.012111
1906.5333,0.011557
1908.3970,0.011453
1910.2606,0.011810
1912.1243,0.012453
1913.9880,0.012312
1915.8516,0.011927
1917.7153,0.011564
1919.5790,0.011841
1921.4427,0.011500
1923.3063,0.011571
1925.1700,0.011413
1927.0337,0.011364
1928.8973,0.011250
1930.7610,0.011634
1932.6247,0.011967
1934.4883,0.011921
1936.3520,0.011043
1938.2157,0.011142
1940.0793,0.011078
1941.9430,0.010936
1943.8067,0.010182
1945.6704,0.009757
1947.5340,0.009764
1949.3977,0.010221
1951.2614,0.009946
1953.1250,0.010290
1954.9887,0.009836
1956.8524,0.009175
1958.7160,0.008108
1960.5797,0.007495
1962.4434,0.007292
1964.3070,0.007112
1966.1707,0.004386
1968.0344,0.002833
1969.8980,0.003811
1971.7617,0.005405
1973.6254,0.004505
1975.4891,0.005086
1977.3527,0.005316
1979.2164,0.006053
1981.0801,0.007274
1982.9437,0.008078
1984.8074,0.007804
1986.6711,0.007645
1988.5347,0.007953
1990.3984,0.008746
1992.2621,0.007966
1994.1257,0.008699
1995.9894,0.009124
1997.8531,0.009394
1999.7167,0.008741
2001.5804,0.008429
2003.4441,0.007709
2005.3078,0.007458
2007.1714,0.007417
2009.0351,0.007689
2010.8988,0.007269
2012.7624,0.007877
2014.6261,0.007448
2016.4898,0.005498
2018.3534,0.004366
2020.2171,0.005838
2022.0808,0.005751
2023.9444,0.004369
2025.8081,0.003999
2027.6718,0.005347
2029.5355,0.006443
2031.3991,0.006614
2033.2628,0.006206
2035.1265,0.006906
2036.9901,0.007256
2038.8538,0.008034
2040.7175,0.008416
2042.5811,0.008292
2044.4448,0.008849
2046.3085,0.009902
2048.1721,0.009862
2050.0358,0.010732
2051.8995,0.011862
2053.7631,0.012584
2055.6268,0.012894
2057.4905,0.013203
2059.3542,0.012934
2061.2178,0.013032
2063.0815,0.013012
2064.9452,0.013693
2066.8088,0.014194
2068.6725,0.014084
2070.5362,0.013862
2072.3998,0.015002
2074.2635,0.015724
2076.1272,0.015929
2077.9908,0.015547
2079.8545,0.015648
2081.7182,0.016062
2083.5819,0.016758
2085.4455,0.016578
2087.3092,0.016155
2089.1729,0.016280
2091.0365,0.016530
2092.9002,0.016553
2094.7639,0.016737
2096.6275,0.016920
2098.4912,0.016793
2100.3549,0.017027
2102.2185,0.017201
2104.0822,0.017163
2105.9459,0.017627
2107.8095,0.017125
2109.6732,0.017236
2111.5369,0.017669
2113.4006,0.018485
2115.2642,0.018683
2117.1279,0.018643
2118.9916,0.018467
2120.8552,0.019008
2122.7189,0.018799
2124.5826,0.017958
2126.4462,0.017666
2128.3099,0.017319
2130.1736,0.016206
2132.0372,0.016277
2133.9009,0.016114
2135.7646,0.016029
2137.6282,0.016064
2139.4919,0.015806
2141.3556,0.015032
2143.2193,0.014278
2145.0829,0.013338
2146.9466,0.012439
2148.8103,0.010971
2150.6739,0.010630
2152.5376,0.010298
2154.4013,0.008331
2156.2649,0.006324
2158.1286,0.007163
2159.9923,0.007196
2161.8559,0.009173
2163.7196,0.009991
2165.5833,0.009853
2167.4470,0.011129
2169.3106,0.011378
2171.1743,0.011087
2173.0380,0.011607
2174.9016,0.009803
2176.7653,0.009302
2178.6290,0.010032
2180.4926,0.011074
2182.3563,0.011508
2184.2200,0.012404
2186.0836,0.013155
2187.9473,0.013578
2189.8110,0.012775
2191.6746,0.012981
2193.5383,0.013145
2195.4020,0.013661
2197.2657,0.014142
2199.1293,0.014411
2200.9930,0.013585
2202.8567,0.014170
2204.7203,0.014830
2206.5840,0.014928
2208.4477,0.015231
2210.3113,0.015515
2212.1750,0.015269
2214.0387,0.015476
2215.9023,0.016440
2217.7660,0.017268
2219.6297,0.017238
2221.4934,0.017860
2223.3570,0.018003
2225.2207,0.017786
2227.0844,0.017591
2228.9480,0.017821
2230.8117,0.018346
2232.6754,0.017891
2234.5390,0.018198
2236.4027,0.019125
2238.2664,0.018957
2240.1300,0.019220
2241.9937,0.019310
2243.8574,0.019263
2245.7210,0.019409
2247.5847,0.019929
2249.4484,0.020149
2251.3121,0.019952
2253.1757,0.019996
2255.0394,0.020881
2256.9031,0.021290
2258.7667,0.021550
2260.6304,0.021353
2262.4941,0.021195
2264.3577,0.021312
2266.2214,0.021995
2268.0851,0.022443
2269.9487,0.022783
2271.8124,0.022711
2273.6761,0.023107
2275.5397,0.023670
2277.4034,0.024058
2279.2671,0.025053
2281.1308,0.025871
2282.9944,0.025625
2284.8581,0.025324
2286.7218,0.025679
2288.5854,0.025911
2290.4491,0.025675
2292.3128,0.025570
2294.1764,0.025763
2296.0401,0.026097
2297.9038,0.026172
2299.7674,0.026412
2301.6311,0.026284
2303.4948,0.026336
2305.3585,0.026767
2307.2221,0.026910
2309.0858,0.026452
2310.9495,0.026340
2312.8131,0.026400
2314.6768,0.026281
2316.5405,0.026053
2318.4041,0.026223
2320.2678,0.026174
2322.1315,0.026127
2323.9951,0.026320
2325.8588,0.026153
2327.7225,0.025565
2329.5861,0.025328
2331.4498,0.025290
2333.3135,0.025143
2335.1772,0.024850
2337.0408,0.025229
2338.9045,0.025303
2340.7682,0.025194
2342.6318,0.025653
2344.4955,0.025644
2346.3592,0.025529
2348.2228,0.025228
2350.0865,0.024777
2351.9502,0.024855
2353.8138,0.024876
2355.6775,0.024580
2357.5412,0.024353
2359.4049,0.024510
2361.2685,0.024725
2363.1322,0.024782
2364.9959,0.024851
2366.8595,0.025034
2368.7232,0.025013
2370.5869,0.025382
2372.4505,0.026152
2374.3142,0.026948
2376.1779,0.027212
2378.0415,0.027121
2379.9052,0.027160
2381.7689,0.026977
2383.6325,0.026937
2385.4962,0.026977
2387.3599,0.027030
2389.2236,0.027244
2391.0872,0.027419
2392.9509,0.027191
2394.8146,0.026987
2396.6782,0.027354
2398.5419,0.027578
2400.4056,0.027787
2402.2692,0.027944
2404.1329,0.028105
2405.9966,0.028171
2407.8602,0.027980
2409.7239,0.027972
2411.5876,0.028131
2413.4512,0.028179
2415.3149,0.028346
2417.1786,0.028540
2419.0423,0.028992
2420.9059,0.029024
2422.7696,0.028809
2424.6333,0.028862
2426.4969,0.029209
2428.3606,0.029530
2430.2243,0.029307
2432.0879,0.029090
2433.9516,0.029220
2435.8153,0.029366
2437.6789,0.029473
2439.5426,0.029759
2441.4063,0.029764
2443.2700,0.029450
2445.1336,0.029545
2446.9973,0.029800
2448.8610,0.029912
2450.7246,0.029828
2452.5883,0.029820
2454.4520,0.029606
2456.3156,0.029540
2458.1793,0.029966
2460.0430,0.029809
2461.9066,0.029622
2463.7703,0.029348
2465.6340,0.029148
2467.4976,0.029321
2469.3613,0.029437
2471.2250,0.029275
2473.0887,0.029476
2474.9523,0.029873
2476.8160,0.029973
2478.6797,0.029971
2480.5433,0.030161
2482.4070,0.030332
2484.2707,0.030373
2486.1343,0.030489
2487.9980,0.030876
2489.8617,0.031251
2491.7253,0.031001
2493.5890,0.030769
2495.4527,0.031330
2497.3164,0.031855
2499.1800,0.031746
2501.0437,0.031505
2502.9074,0.031592
2504.7710,0.031920
2506.6347,0.032037
2508.4984,0.032231
2510.3620,0.032579
2512.2257,0.032714
2514.0894,0.033005
2515.9530,0.033223
2517.8167,0.033091
2519.6804,0.033340
2521.5440,0.033597
2523.4077,0.033737
2525.2714,0.033923
2527.1351,0.033971
