Wavenumber,Intensity
650.4205,0.206120
652.2841,0.201633
654.1478,0.198377
656.0115,0.192142
657.8751,0.186878
659.7388,0.184202
661.6025,0.183505
663.4661,0.181024
665.3298,0.177721
667.1935,0.176721
669.0571,0.178485
670.9208,0.177762
672.7845,0.177923
674.6481,0.177892
676.5118,0.177456
678.3755,0.176199
680.2392,0.175925
682.1028,0.176673
683.9665,0.178312
685.8302,0.177501
687.6938,0.177001
689.5575,0.176585
691.4212,0.175518
693.2848,0.174912
695.1485,0.175123
697.0122,0.176566
698.8758,0.177216
700.7395,0.176018
702.6032,0.174790
704.4669,0.171918
706.3305,0.167595
708.1942,0.161931
710.0579,0.154955
711.9215,0.146939
713.7852,0.139134
715.6489,0.131422
717.5125,0.124908
719.3762,0.119212
721.2399,0.113749
723.1035,0.108850
724.9672,0.104300
726.8309,0.099984
728.6945,0.095679
730.5582,0.091696
732.4219,0.088085
734.2856,0.084905
736.1492,0.082046
738.0129,0.080241
739.8766,0.080557
741.7402,0.081935
743.6039,0.084021
745.4676,0.085484
747.3312,0.086041
749.1949,0.086462
751.0586,0.085988
752.9222,0.084433
754.7859,0.083485
756.6496,0.083056
758.5132,0.082461
760.3769,0.081939
762.2406,0.081292
764.1043,0.081229
765.9679,0.081458
767.8316,0.081425
769.6953,0.081554
771.5589,0.082052
773.4226,0.083101
775.2863,0.084143
777.1499,0.084703
779.0136,0.085227
780.8773,0.086215
782.7409,0.087831
784.6046,0.089548
786.4683,0.091135
788.3320,0.092910
790.1956,0.095215
792.0593,0.097917
793.9230,0.099876
795.7866,0.101883
797.6503,0.104428
799.5140,0.106296
801.3776,0.107556
803.2413,0.108328
805.1050,0.108350
806.9686,0.107921
808.8323,0.106611
810.6960,0.104286
812.5596,0.101429
814.4233,0.098480
816.2870,0.095789
818.1507,0.093247
820.0143,0.090988
821.8780,0.089554
823.7417,0.088759
825.6053,0.089288
827.4690,0.091400
829.3327,0.092363
831.1963,0.086596
833.0600,0.074479
834.9237,0.063904
836.7873,0.058491
838.6510,0.056205
840.5147,0.055006
842.3784,0.054210
844.2420,0.053704
846.1057,0.053412
847.9694,0.053187
849.8330,0.052566
851.6967,0.051670
853.5604,0.051032
855.4240,0.050654
857.2877,0.050547
859.1514,0.050688
861.0150,0.050652
862.8787,0.050346
864.7424,0.050287
866.6060,0.050536
868.4697,0.050758
870.3334,0.050852
872.1971,0.051015
874.0607,0.051392
875.9244,0.051648
877.7881,0.051785
879.6517,0.052110
881.5154,0.052561
883.3791,0.052958
885.2427,0.053114
887.1064,0.053492
888.9701,0.054224
890.8337,0.054884
892.6974,0.055339
894.5611,0.055991
896.4247,0.057055
898.2884,0.058293
900.1521,0.059696
902.0158,0.061597
903.8794,0.064186
905.7431,0.067581
907.6068,0.071732
909.4704,0.076541
911.3341,0.082772
913.1978,0.090163
915.0614,0.093171
916.9251,0.084866
918.7888,0.069719
920.6524,0.058511
922.5161,0.053854
924.3798,0.052520
926.2435,0.052344
928.1071,0.052639
929.9708,0.053196
931.8345,0.053785
933.6981,0.054264
935.5618,0.054860
937.4255,0.055508
939.2891,0.056041
941.1528,0.056605
943.0165,0.057280
944.8801,0.057987
946.7438,0.058717
948.6075,0.059413
950.4711,0.060094
952.3348,0.060756
954.1985,0.061524
956.0622,0.062437
957.9258,0.063396
959.7895,0.064375
961.6532,0.065421
963.5168,0.066673
965.3805,0.068285
967.2442,0.070260
969.1078,0.072462
970.9715,0.074699
972.8352,0.077438
974.6988,0.081976
976.5625,0.089991
978.4262,0.104167
980.2899,0.124836
982.1535,0.134265
984.0172,0.111711
985.8809,0.079755
987.7445,0.064647
989.6082,0.061881
991.4719,0.061885
993.3355,0.062271
995.1992,0.062712
997.0629,0.063171
998.9265,0.063641
1000.7902,0.064051
1002.6539,0.064431
1004.5175,0.064785
1006.3812,0.065155
1008.2449,0.065656
1010.1086,0.066292
1011.9722,0.066836
1013.8359,0.067348
1015.6996,0.068025
1017.5632,0.068897
1019.4269,0.069806
1021.2906,0.070790
1023.1542,0.071962
1025.0179,0.073238
1026.8816,0.074692
1028.7452,0.076336
1030.6089,0.077870
1032.4726,0.078814
1034.3362,0.079139
1036.1999,0.079882
1038.0636,0.081770
1039.9273,0.084763
1041.7909,0.088613
1043.6546,0.093158
1045.5183,0.097764
1047.3819,0.100999
1049.2456,0.100998
1051.1093,0.096190
1052.9729,0.087742
1054.8366,0.079540
1056.7003,0.074205
1058.5639,0.071786
1060.4276,0.071323
1062.2913,0.071777
1064.1550,0.072662
1066.0186,0.073926
1067.8823,0.075310
1069.7460,0.076758
1071.6096,0.078493
1073.4733,0.080337
1075.3370,0.082180
1077.2006,0.084206
1079.0643,0.086327
1080.9280,0.088578
1082.7916,0.091133
1084.6553,0.094100
1086.5190,0.097268
1088.3826,0.100660
1090.2463,0.104727
1092.1100,0.109314
1093.9737,0.114298
1095.8373,0.119910
1097.7010,0.126198
1099.5647,0.133031
1101.4283,0.140047
1103.2920,0.146416
1105.1557,0.150919
1107.0193,0.152004
1108.8830,0.148041
1110.7467,0.138924
1112.6103,0.126713
1114.4740,0.113929
1116.3377,0.102391
1118.2014,0.093060
1120.0650,0.086152
1121.9287,0.081389
1123.7924,0.078343
1125.6560,0.076188
1127.5197,0.074075
1129.3834,0.071926
1131.2470,0.070034
1133.1107,0.068492
1134.9744,0.067280
1136.8380,0.066471
1138.7017,0.066068
1140.5654,0.065998
1142.4290,0.066110
1144.2927,0.066180
1146.1564,0.066324
1148.0201,0.066649
1149.8837,0.066974
1151.7474,0.067370
1153.6111,0.067977
1155.4747,0.068823
1157.3384,0.069821
1159.2021,0.070973
1161.0657,0.072463
1162.9294,0.074386
1164.7931,0.076807
1166.6567,0.079852
1168.5204,0.083554
1170.3841,0.087388
1172.2477,0.090105
1174.1114,0.090041
1175.9751,0.086488
1177.8388,0.081127
1179.7024,0.076559
1181.5661,0.073857
1183.4298,0.072542
1185.2934,0.071982
1187.1571,0.071886
1189.0208,0.071976
1190.8844,0.071981
1192.7481,0.071989
1194.6118,0.072102
1196.4754,0.072310
1198.3391,0.072582
1200.2028,0.072872
1202.0665,0.073231
1203.9301,0.073618
1205.7938,0.073946
1207.6575,0.074280
1209.5211,0.074659
1211.3848,0.075069
1213.2485,0.075516
1215.1121,0.075900
1216.9758,0.076262
1218.8395,0.076690
1220.7031,0.077004
1222.5668,0.077353
1224.4305,0.077896
1226.2941,0.078393
1228.1578,0.078870
1230.0215,0.079290
1231.8852,0.079693
1233.7488,0.080172
1235.6125,0.080647
1237.4762,0.081127
1239.3398,0.081587
1241.2035,0.082067
1243.0672,0.082700
1244.9308,0.083385
1246.7945,0.083952
1248.6582,0.084542
1250.5218,0.085254
1252.3855,0.085992
1254.2492,0.086709
1256.1129,0.087480
1257.9765,0.088402
1259.8402,0.089480
1261.7039,0.090588
1263.5675,0.091627
1265.4312,0.092498
1267.2949,0.093012
1269.1585,0.093095
1271.0222,0.092891
1272.8859,0.092721
1274.7495,0.092894
1276.6132,0.093514
1278.4769,0.094457
1280.3405,0.095634
1282.2042,0.097022
1284.0679,0.098508
1285.9316,0.100327
1287.7952,0.102805
1289.6589,0.105694
1291.5226,0.108896
1293.3862,0.112650
1295.2499,0.117073
1297.1136,0.122284
1298.9772,0.128459
1300.8409,0.135930
1302.7046,0.143959
1304.5682,0.149854
1306.4319,0.149468
1308.2956,0.138447
1310.1592,0.117585
1312.0229,0.095840
1313.8866,0.081511
1315.7503,0.076101
1317.6139,0.075969
1319.4776,0.077988
1321.3413,0.080272
1323.2049,0.082525
1325.0686,0.084990
1326.9323,0.087509
1328.7959,0.090079
1330.6596,0.092496
1332.5233,0.094356
1334.3869,0.095414
1336.2506,0.096176
1338.1143,0.097790
1339.9780,0.100069
1341.8416,0.100788
1343.7053,0.100688
1345.5690,0.101370
1347.4326,0.102357
1349.2963,0.103577
1351.1600,0.105051
1353.0236,0.106802
1354.8873,0.109082
1356.7510,0.111299
1358.6146,0.113052
1360.4783,0.115720
1362.3420,0.120785
1364.2056,0.125298
1366.0693,0.127190
1367.9330,0.130287
1369.7967,0.134186
1371.6603,0.137174
1373.5240,0.141914
1375.3877,0.147565
1377.2513,0.150742
1379.1150,0.154914
1380.9787,0.160541
1382.8423,0.166196
1384.7060,0.172406
1386.5697,0.181028
1388.4333,0.190938
1390.2970,0.195818
1392.1607,0.198083
1394.0244,0.198931
1395.8880,0.194156
1397.7517,0.185148
1399.6154,0.174450
1401.4790,0.164006
1403.3427,0.154954
1405.2064,0.141600
1407.0700,0.123751
1408.9337,0.106384
1410.7974,0.090130
1412.6610,0.078482
1414.5247,0.072979
1416.3884,0.072343
1418.2520,0.077201
1420.1157,0.086462
1421.9794,0.090505
1423.8431,0.088582
1425.7067,0.080014
1427.5704,0.070473
1429.4341,0.064703
1431.2977,0.062496
1433.1614,0.062320
1435.0251,0.063759
1436.8887,0.067969
1438.7524,0.070780
1440.6161,0.071352
1442.4797,0.072965
1444.3434,0.074805
1446.2071,0.076253
1448.0707,0.077082
1449.9344,0.075587
1451.7981,0.072203
1453.6618,0.068548
1455.5254,0.067269
1457.3891,0.071523
1459.2528,0.073304
1461.1164,0.071184
1462.9801,0.070695
1464.8438,0.071688
1466.7074,0.071173
1468.5711,0.068795
1470.4348,0.067450
1472.2984,0.068699
1474.1621,0.070685
1476.0258,0.070201
1477.8895,0.069665
1479.7531,0.069229
1481.6168,0.069654
1483.4805,0.069686
1485.3441,0.069317
1487.2078,0.070248
1489.0715,0.073180
1490.9351,0.075426
1492.7988,0.074309
1494.6625,0.073612
1496.5261,0.076189
1498.3898,0.079194
1500.2535,0.079477
1502.1171,0.078350
1503.9808,0.077322
1505.8445,0.079955
1507.7082,0.090334
1509.5718,0.089226
1511.4355,0.087347
1513.2992,0.087411
1515.1628,0.088215
1517.0265,0.090392
1518.8902,0.091808
1520.7538,0.093608
1522.6175,0.097817
1524.4812,0.097754
1526.3448,0.098799
1528.2085,0.099957
1530.0722,0.099730
1531.9359,0.100837
1533.7995,0.104344
1535.6632,0.104404
1537.5269,0.102991
1539.3905,0.107043
1541.2542,0.117021
1543.1179,0.117582
1544.9815,0.118446
1546.8452,0.118950
1548.7089,0.120090
1550.5725,0.123275
1552.4362,0.125065
1554.2999,0.126061
1556.1635,0.128312
1558.0272,0.134753
1559.8909,0.150819
1561.7546,0.145446
1563.6182,0.143089
1565.4819,0.145211
1567.3456,0.147954
1569.2092,0.152542
1571.0729,0.157619
1572.9366,0.157987
1574.8002,0.161482
1576.6639,0.170142
1578.5276,0.173308
1580.3912,0.173607
1582.2549,0.176556
1584.1186,0.179386
1585.9822,0.181432
1587.8459,0.182612
1589.7096,0.183381
1591.5733,0.183447
1593.4369,0.183056
1595.3006,0.182062
1597.1643,0.180209
1599.0279,0.177792
1600.8916,0.175675
1602.7553,0.173467
1604.6189,0.171169
1606.4826,0.169163
1608.3463,0.167310
1610.2099,0.164884
1612.0736,0.161646
1613.9373,0.157983
1615.8010,0.153932
1617.6646,0.146489
1619.5283,0.138479
1621.3920,0.132853
1623.2556,0.126048
1625.1193,0.117512
1626.9830,0.109927
1628.8466,0.100757
1630.7103,0.091310
1632.5740,0.083803
1634.4376,0.076439
1636.3013,0.068126
1638.1650,0.063534
1640.0286,0.062233
1641.8923,0.061139
1643.7560,0.061297
1645.6197,0.063068
1647.4833,0.066755
1649.3470,0.068176
1651.2107,0.069602
1653.0743,0.075248
1654.9380,0.080907
1656.8017,0.079374
1658.6653,0.079379
1660.5290,0.079654
1662.3927,0.079476
1664.2563,0.077990
1666.1200,0.076030
1667.9837,0.074437
1669.8474,0.073177
1671.7110,0.072043
1673.5747,0.072112
1675.4384,0.074081
1677.3020,0.076970
1679.1657,0.079105
1681.0294,0.082821
1682.8930,0.087424
1684.7567,0.095016
1686.6204,0.096810
1688.4840,0.095396
1690.3477,0.094239
1692.2114,0.091688
1694.0750,0.088672
1695.9387,0.085587
1697.8024,0.081658
1699.6661,0.078415
1701.5297,0.071123
1703.3934,0.064606
1705.2571,0.057020
1707.1207,0.047428
1708.9844,0.040871
1710.8481,0.036155
1712.7117,0.032165
1714.5754,0.029429
1716.4391,0.027406
1718.3027,0.026674
1720.1664,0.025675
1722.0301,0.024504
1723.8937,0.022737
1725.7574,0.020794
1727.6211,0.018888
1729.4848,0.017414
1731.3484,0.015970
1733.2121,0.015037
1735.0758,0.014212
1736.9394,0.013782
1738.8031,0.013138
1740.6668,0.012882
1742.5304,0.012515
1744.3941,0.012161
1746.2578,0.011676
1748.1214,0.011394
1749.9851,0.011055
1751.8488,0.011085
1753.7125,0.010881
1755.5761,0.010753
1757.4398,0.010519
1759.3035,0.010474
1761.1671,0.010465
1763.0308,0.010818
1764.8945,0.010733
1766.7581,0.010604
1768.6218,0.010414
1770.4855,0.010302
1772.3491,0.010082
1774.2128,0.010410
1776.0765,0.010259
1777.9401,0.010364
1779.8038,0.010514
1781.6675,0.010730
1783.5312,0.010666
1785.3948,0.010680
1787.2585,0.010654
1789.1222,0.010607
1790.9858,0.010415
1792.8495,0.010775
1794.7132,0.010904
1796.5768,0.010806
1798.4405,0.010737
1800.3042,0.010917
1802.1678,0.011186
1804.0315,0.011406
1805.8952,0.011302
1807.7589,0.011281
1809.6225,0.011275
1811.4862,0.011465
1813.3499,0.011545
1815.2135,0.011571
1817.0772,0.011391
1818.9409,0.011591
1820.8045,0.011711
1822.6682,0.011794
1824.5319,0.011765
1826.3955,0.011592
1828.2592,0.011243
1830.1229,0.011618
1831.9865,0.011858
1833.8502,0.011726
1835.7139,0.011462
1837.5776,0.011317
1839.4412,0.011143
1841.3049,0.011250
1843.1686,0.011416
1845.0322,0.011757
1846.8959,0.012028
1848.7596,0.012140
1850.6232,0.011967
1852.4869,0.011934
1854.3506,0.011758
1856.2142,0.011635
1858.0779,0.011681
1859.9416,0.011924
1861.8052,0.012057
1863.6689,0.012051
1865.5326,0.011884
1867.3963,0.011868
1869.2599,0.011727
1871.1236,0.012007
1872.9873,0.011981
1874.8509,0.012215
1876.7146,0.012329
1878.5783,0.012265
1880.4419,0.012229
1882.3056,0.012520
1884.1693,0.012634
1886.0329,0.012799
1887.8966,0.012615
1889.7603,0.012816
1891.6240,0.012908
1893.4876,0.012956
1895.3513,0.012999
1897.2150,0.013474
1899.0786,0.013471
1900.9423,0.013306
1902.8060,0.013275
1904.6696,0.013402
1906.5333,0.013155
1908.3970,0.013327
1910.2606,0.013464
1912.1243,0.013891
1913.9880,0.013927
1915.8516,0.013605
1917.7153,0.013422
1919.5790,0.014010
1921.4427,0.013858
1923.3063,0.013332
1925.1700,0.013050
1927.0337,0.012972
1928.8973,0.012676
1930.7610,0.012941
1932.6247,0.013038
1934.4883,0.013468
1936.3520,0.012773
1938.2157,0.011991
1940.0793,0.011867
1941.9430,0.012131
1943.8067,0.011236
1945.6704,0.010622
1947.5340,0.010261
1949.3977,0.010776
1951.2614,0.010904
1953.1250,0.010213
1954.9887,0.009589
1956.8524,0.009773
1958.7160,0.009332
1960.5797,0.009109
1962.4434,0.009118
1964.3070,0.008694
1966.1707,0.006077
1968.0344,0.004905
1969.8980,0.005825
1971.7617,0.006997
1973.6254,0.006464
1975.4891,0.005130
1977.3527,0.004662
1979.2164,0.007245
1981.0801,0.007965
1982.9437,0.007736
1984.8074,0.007689
1986.6711,0.008070
1988.5347,0.008313
1990.3984,0.009522
1992.2621,0.009516
1994.1257,0.009327
1995.9894,0.010015
1997.8531,0.010603
1999.7167,0.009839
2001.5804,0.008897
2003.4441,0.007444
2005.3078,0.007758
2007.1714,0.007955
2009.0351,0.007950
2010.8988,0.007094
2012.7624,0.008451
2014.6261,0.008651
2016.4898,0.007879
2018.3534,0.006391
2020.2171,0.006004
2022.0808,0.007133
2023.9444,0.008869
2025.8081,0.008157
2027.6718,0.007144
2029.5355,0.006728
2031.3991,0.008265
2033.2628,0.008101
2035.1265,0.006713
2036.9901,0.007285
2038.8538,0.008865
2040.7175,0.009914
2042.5811,0.010469
2044.4448,0.009031
2046.3085,0.009075
2048.1721,0.009733
2050.0358,0.011388
2051.8995,0.011418
2053.7631,0.011463
2055.6268,0.012429
2057.4905,0.012826
2059.3542,0.012416
2061.2178,0.012608
2063.0815,0.012671
2064.9452,0.012893
2066.8088,0.012808
2068.6725,0.013213
2070.5362,0.013391
2072.3998,0.013652
2074.2635,0.013773
2076.1272,0.013867
2077.9908,0.014452
2079.8545,0.015086
2081.7182,0.014739
2083.5819,0.015064
2085.4455,0.015092
2087.3092,0.014685
2089.1729,0.014661
2091.0365,0.014919
2092.9002,0.015107
2094.7639,0.015045
2096.6275,0.013857
2098.4912,0.014172
2100.3549,0.014760
2102.2185,0.014727
2104.0822,0.015257
2105.9459,0.015696
2107.8095,0.015420
2109.6732,0.015682
2111.5369,0.015783
2113.4006,0.015595
2115.2642,0.015135
2117.1279,0.015231
2118.9916,0.015221
2120.8552,0.015266
2122.7189,0.015017
2124.5826,0.015775
2126.4462,0.015454
2128.3099,0.015214
2130.1736,0.015402
2132.0372,0.014827
2133.9009,0.014155
2135.7646,0.014482
2137.6282,0.013943
2139.4919,0.013795
2141.3556,0.012524
2143.2193,0.011246
2145.0829,0.011006
2146.9466,0.010826
2148.8103,0.010506
2150.6739,0.011027
2152.5376,0.010422
2154.4013,0.009682
2156.2649,0.008122
2158.1286,0.006748
2159.9923,0.006371
2161.8559,0.007280
2163.7196,0.008632
2165.5833,0.009869
2167.4470,0.010104
2169.3106,0.010836
2171.1743,0.010989
2173.0380,0.010987
2174.9016,0.011298
2176.7653,0.011929
2178.6290,0.011145
2180.4926,0.010889
2182.3563,0.011482
2184.2200,0.012673
2186.0836,0.012135
2187.9473,0.012597
2189.8110,0.012963
2191.6746,0.012681
2193.5383,0.012258
2195.4020,0.012516
2197.2657,0.013412
2199.1293,0.013900
2200.9930,0.012797
2202.8567,0.013267
2204.7203,0.014028
2206.5840,0.014518
2208.4477,0.014468
2210.3113,0.014621
2212.1750,0.014390
2214.0387,0.014887
2215.9023,0.015214
2217.7660,0.015419
2219.6297,0.015547
2221.4934,0.015306
2223.3570,0.015459
2225.2207,0.016090
2227.0844,0.016347
2228.9480,0.016365
2230.8117,0.016291
2232.6754,0.017200
2234.5390,0.018159
2236.4027,0.018024
2238.2664,0.017972
2240.1300,0.018622
2241.9937,0.018149
2243.8574,0.017784
2245.7210,0.017831
2247.5847,0.017919
2249.4484,0.017905
2251.3121,0.018519
2253.1757,0.018838
2255.0394,0.019204
2256.9031,0.019644
2258.7667,0.019806
2260.6304,0.019461
2262.4941,0.019718
2264.3577,0.019638
2266.2214,0.019890
2268.0851,0.020635
2269.9487,0.021003
2271.8124,0.020578
2273.6761,0.020672
2275.5397,0.021501
2277.4034,0.021897
2279.2671,0.021835
2281.1308,0.022382
2282.9944,0.022941
2284.8581,0.023092
2286.7218,0.022687
2288.5854,0.022826
2290.4491,0.023098
2292.3128,0.023224
2294.1764,0.023172
2296.0401,0.023335
2297.9038,0.023413
2299.7674,0.023539
2301.6311,0.023474
2303.4948,0.023554
2305.3585,0.023644
2307.2221,0.023794
2309.0858,0.023771
2310.9495,0.023627
2312.8131,0.023634
2314.6768,0.023501
2316.5405,0.023761
2318.4041,0.024177
2320.2678,0.024073
2322.1315,0.023864
2323.9951,0.023987
2325.8588,0.023657
2327.7225,0.023182
2329.5861,0.023284
2331.4498,0.023097
2333.3135,0.022827
2335.1772,0.022828
2337.0408,0.023112
2338.9045,0.023132
2340.7682,0.023120
2342.6318,0.023382
2344.4955,0.023659
2346.3592,0.023765
2348.2228,0.023331
2350.0865,0.022724
2351.9502,0.022732
2353.8138,0.022968
2355.6775,0.022854
2357.5412,0.022772
2359.4049,0.022851
2361.2685,0.023141
2363.1322,0.023198
2364.9959,0.023192
2366.8595,0.023571
2368.7232,0.023358
2370.5869,0.023138
2372.4505,0.023774
2374.3142,0.024174
2376.1779,0.024476
2378.0415,0.024367
2379.9052,0.024316
2381.7689,0.024452
2383.6325,0.024369
2385.4962,0.024209
2387.3599,0.024279
2389.2236,0.024238
2391.0872,0.024221
2392.9509,0.024237
2394.8146,0.024220
2396.6782,0.024541
2398.5419,0.024820
2400.4056,0.024832
2402.2692,0.024921
2404.1329,0.024495
2405.9966,0.024214
2407.8602,0.024782
2409.7239,0.024865
2411.5876,0.024820
2413.4512,0.025096
2415.3149,0.025080
2417.1786,0.025109
2419.0423,0.025141
2420.9059,0.024909
2422.7696,0.024983
2424.6333,0.025410
2426.4969,0.025743
2428.3606,0.025552
2430.2243,0.025573
2432.0879,0.025265
2433.9516,0.025153
2435.8153,0.025569
2437.6789,0.025905
2439.5426,0.025570
2441.4063,0.025435
2443.2700,0.025598
2445.1336,0.025537
2446.9973,0.025442
2448.8610,0.025965
2450.7246,0.025969
2452.5883,0.025695
2454.4520,0.025469
2456.3156,0.025490
2458.1793,0.025521
2460.0430,0.025437
2461.9066,0.025175
2463.7703,0.024982
2465.6340,0.024940
2467.4976,0.025119
2469.3613,0.025418
2471.2250,0.025648
2473.0887,0.025500
2474.9523,0.025696
2476.8160,0.025948
2478.6797,0.025786
2480.5433,0.025402
2482.4070,0.025354
2484.2707,0.025538
2486.1343,0.025802
2487.9980,0.026081
2489.8617,0.025935
2491.7253,0.025801
2493.5890,0.026008
2495.4527,0.026027
2497.3164,0.026274
2499.1800,0.026256
2501.0437,0.026072
2502.9074,0.026275
2504.7710,0.026467
2506.6347,0.026368
2508.4984,0.026409
2510.3620,0.026777
2512.2257,0.027030
2514.0894,0.027081
2515.9530,0.027111
2517.8167,0.026868
2519.6804,0.026701
2521.5440,0.027014
2523.4077,0.027494
2525.2714,0.027466
2527.1351,0.027439
