Wavenumber,Intensity
650.4205,0.197267
652.2841,0.193264
654.1478,0.190555
656.0115,0.187120
657.8751,0.184100
659.7388,0.177557
661.6025,0.175068
663.4661,0.173288
665.3298,0.171100
667.1935,0.170532
669.0571,0.173296
670.9208,0.171870
672.7845,0.171472
674.6481,0.171626
676.5118,0.170339
678.3755,0.168751
680.2392,0.169630
682.1028,0.170987
683.9665,0.172143
685.8302,0.170763
687.6938,0.170850
689.5575,0.172387
691.4212,0.172771
693.2848,0.170483
695.1485,0.170561
697.0122,0.172441
698.8758,0.174443
700.7395,0.174573
702.6032,0.173756
704.4669,0.169614
706.3305,0.163255
708.1942,0.155654
710.0579,0.148487
711.9215,0.140501
713.7852,0.132018
715.6489,0.124894
717.5125,0.119561
719.3762,0.113808
721.2399,0.107097
723.1035,0.101573
724.9672,0.098521
726.8309,0.095478
728.6945,0.091440
730.5582,0.087867
732.4219,0.084567
734.2856,0.080684
736.1492,0.077857
738.0129,0.076858
739.8766,0.078123
741.7402,0.080578
743.6039,0.082616
745.4676,0.084402
747.3312,0.084970
749.1949,0.084127
751.0586,0.083375
752.9222,0.082166
754.7859,0.081156
756.6496,0.080826
758.5132,0.080562
760.3769,0.079631
762.2406,0.078712
764.1043,0.078631
765.9679,0.078473
767.8316,0.078052
769.6953,0.078169
771.5589,0.078345
773.4226,0.078446
775.2863,0.078989
777.1499,0.080029
779.0136,0.080807
780.8773,0.081525
782.7409,0.082312
784.6046,0.083548
786.4683,0.084928
788.3320,0.086315
790.1956,0.088020
792.0593,0.089588
793.9230,0.091232
795.7866,0.093456
797.6503,0.094890
799.5140,0.095650
801.3776,0.096158
803.2413,0.096442
805.1050,0.096182
806.9686,0.095403
808.8323,0.093697
810.6960,0.091250
812.5596,0.087929
814.4233,0.084696
816.2870,0.081964
818.1507,0.079259
820.0143,0.076613
821.8780,0.074782
823.7417,0.073815
825.6053,0.074255
827.4690,0.076096
829.3327,0.076834
831.1963,0.071722
833.0600,0.061566
834.9237,0.053142
836.7873,0.049017
838.6510,0.047869
840.5147,0.047899
842.3784,0.047794
844.2420,0.047599
846.1057,0.047768
847.9694,0.047645
849.8330,0.046804
851.6967,0.045677
853.5604,0.044868
855.4240,0.044119
857.2877,0.043497
859.1514,0.042958
861.0150,0.042557
862.8787,0.042431
864.7424,0.042388
866.6060,0.042365
868.4697,0.042483
870.3334,0.042669
872.1971,0.042803
874.0607,0.042929
875.9244,0.043219
877.7881,0.043631
879.6517,0.043974
881.5154,0.044326
883.3791,0.044704
885.2427,0.044948
887.1064,0.045116
888.9701,0.045382
890.8337,0.045818
892.6974,0.046131
894.5611,0.046649
896.4247,0.047513
898.2884,0.048559
900.1521,0.049856
902.0158,0.051736
903.8794,0.054319
905.7431,0.057318
907.6068,0.061270
909.4704,0.066081
911.3341,0.071414
913.1978,0.077120
915.0614,0.079422
916.9251,0.072102
918.7888,0.058661
920.6524,0.048680
922.5161,0.044563
924.3798,0.043694
926.2435,0.043955
928.1071,0.044299
929.9708,0.044550
931.8345,0.044876
933.6981,0.045390
935.5618,0.045992
937.4255,0.046745
939.2891,0.047675
941.1528,0.048384
943.0165,0.049103
944.8801,0.049943
946.7438,0.050661
948.6075,0.051344
950.4711,0.052154
952.3348,0.052973
954.1985,0.053855
956.0622,0.054778
957.9258,0.055897
959.7895,0.057221
961.6532,0.058509
963.5168,0.059952
965.3805,0.061855
967.2442,0.064065
969.1078,0.066652
970.9715,0.069544
972.8352,0.072780
974.6988,0.077763
976.5625,0.086453
978.4262,0.101168
980.2899,0.120971
982.1535,0.126949
984.0172,0.101776
985.8809,0.071677
987.7445,0.059037
989.6082,0.057592
991.4719,0.058335
993.3355,0.058867
995.1992,0.059276
997.0629,0.059960
998.9265,0.060818
1000.7902,0.061622
1002.6539,0.062394
1004.5175,0.063240
1006.3812,0.064188
1008.2449,0.065025
1010.1086,0.065978
1011.9722,0.067082
1013.8359,0.068074
1015.6996,0.069022
1017.5632,0.069997
1019.4269,0.070896
1021.2906,0.071585
1023.1542,0.072136
1025.0179,0.072674
1026.8816,0.073296
1028.7452,0.074165
1030.6089,0.075362
1032.4726,0.076786
1034.3362,0.078280
1036.1999,0.079975
1038.0636,0.081969
1039.9273,0.084341
1041.7909,0.087132
1043.6546,0.090268
1045.5183,0.093511
1047.3819,0.095899
1049.2456,0.095544
1051.1093,0.090800
1052.9729,0.082703
1054.8366,0.075126
1056.7003,0.070485
1058.5639,0.068603
1060.4276,0.068438
1062.2913,0.068694
1064.1550,0.068967
1066.0186,0.069681
1067.8823,0.070912
1069.7460,0.072404
1071.6096,0.074052
1073.4733,0.075775
1075.3370,0.077551
1077.2006,0.079516
1079.0643,0.081839
1080.9280,0.084277
1082.7916,0.086775
1084.6553,0.089537
1086.5190,0.092555
1088.3826,0.095916
1090.2463,0.099700
1092.1100,0.103882
1093.9737,0.108646
1095.8373,0.114122
1097.7010,0.120105
1099.5647,0.126401
1101.4283,0.132613
1103.2920,0.138035
1105.1557,0.141567
1107.0193,0.141576
1108.8830,0.136882
1110.7467,0.127790
1112.6103,0.116134
1114.4740,0.104229
1116.3377,0.093713
1118.2014,0.085262
1120.0650,0.079074
1121.9287,0.074932
1123.7924,0.072328
1125.6560,0.070510
1127.5197,0.068865
1129.3834,0.067090
1131.2470,0.065128
1133.1107,0.063195
1134.9744,0.061545
1136.8380,0.060203
1138.7017,0.059117
1140.5654,0.058556
1142.4290,0.058457
1144.2927,0.058327
1146.1564,0.058062
1148.0201,0.057957
1149.8837,0.058198
1151.7474,0.058690
1153.6111,0.059299
1155.4747,0.060096
1157.3384,0.061009
1159.2021,0.062076
1161.0657,0.063431
1162.9294,0.065013
1164.7931,0.066928
1166.6567,0.069386
1168.5204,0.072386
1170.3841,0.075430
1172.2477,0.077407
1174.1114,0.076995
1175.9751,0.073703
1177.8388,0.069246
1179.7024,0.065722
1181.5661,0.063659
1183.4298,0.062742
1185.2934,0.062574
1187.1571,0.062511
1189.0208,0.062256
1190.8844,0.061894
1192.7481,0.061483
1194.6118,0.061206
1196.4754,0.061206
1198.3391,0.061309
1200.2028,0.061441
1202.0665,0.061706
1203.9301,0.061784
1205.7938,0.061622
1207.6575,0.061577
1209.5211,0.061710
1211.3848,0.062020
1213.2485,0.062391
1215.1121,0.062792
1216.9758,0.063397
1218.8395,0.063937
1220.7031,0.064178
1222.5668,0.064399
1224.4305,0.064752
1226.2941,0.065144
1228.1578,0.065636
1230.0215,0.066186
1231.8852,0.066607
1233.7488,0.066956
1235.6125,0.067456
1237.4762,0.068041
1239.3398,0.068558
1241.2035,0.069096
1243.0672,0.069691
1244.9308,0.070345
1246.7945,0.071135
1248.6582,0.071932
1250.5218,0.072678
1252.3855,0.073572
1254.2492,0.074501
1256.1129,0.075394
1257.9765,0.076468
1259.8402,0.077637
1261.7039,0.078585
1263.5675,0.079327
1265.4312,0.079874
1267.2949,0.079942
1269.1585,0.079641
1271.0222,0.079537
1272.8859,0.079737
1274.7495,0.080179
1276.6132,0.081029
1278.4769,0.082257
1280.3405,0.083748
1282.2042,0.085416
1284.0679,0.087187
1285.9316,0.089162
1287.7952,0.091674
1289.6589,0.094638
1291.5226,0.098266
1293.3862,0.102788
1295.2499,0.107604
1297.1136,0.112685
1298.9772,0.118690
1300.8409,0.126008
1302.7046,0.133724
1304.5682,0.138457
1306.4319,0.135534
1308.2956,0.122363
1310.1592,0.102033
1312.0229,0.082960
1313.8866,0.071454
1315.7503,0.067750
1317.6139,0.068520
1319.4776,0.071088
1321.3413,0.073964
1323.2049,0.076908
1325.0686,0.080004
1326.9323,0.083132
1328.7959,0.086291
1330.6596,0.089144
1332.5233,0.090849
1334.3869,0.090986
1336.2506,0.090252
1338.1143,0.089887
1339.9780,0.090435
1341.8416,0.090590
1343.7053,0.090461
1345.5690,0.090911
1347.4326,0.091837
1349.2963,0.093242
1351.1600,0.095129
1353.0236,0.097356
1354.8873,0.099987
1356.7510,0.102476
1358.6146,0.104349
1360.4783,0.106791
1362.3420,0.111193
1364.2056,0.115149
1366.0693,0.117461
1367.9330,0.121188
1369.7967,0.125890
1371.6603,0.129927
1373.5240,0.135555
1375.3877,0.141719
1377.2513,0.145645
1379.1150,0.150368
1380.9787,0.156425
1382.8423,0.162594
1384.7060,0.169142
1386.5697,0.177279
1388.4333,0.185841
1390.2970,0.189147
1392.1607,0.188986
1394.0244,0.186732
1395.8880,0.180116
1397.7517,0.170857
1399.6154,0.160741
1401.4790,0.151200
1403.3427,0.142546
1405.2064,0.129570
1407.0700,0.112824
1408.9337,0.097110
1410.7974,0.083342
1412.6610,0.073966
1414.5247,0.070037
1416.3884,0.070409
1418.2520,0.074948
1420.1157,0.082329
1421.9794,0.085423
1423.8431,0.083225
1425.7067,0.075106
1427.5704,0.066446
1429.4341,0.061130
1431.2977,0.059154
1433.1614,0.059251
1435.0251,0.060827
1436.8887,0.064485
1438.7524,0.066810
1440.6161,0.067711
1442.4797,0.069352
1444.3434,0.070682
1446.2071,0.071634
1448.0707,0.072263
1449.9344,0.071094
1451.7981,0.068292
1453.6618,0.065242
1455.5254,0.064457
1457.3891,0.068141
1459.2528,0.070158
1461.1164,0.069452
1462.9801,0.069932
1464.8438,0.071209
1466.7074,0.070573
1468.5711,0.068476
1470.4348,0.067397
1472.2984,0.068345
1474.1621,0.069654
1476.0258,0.069448
1477.8895,0.068612
1479.7531,0.068129
1481.6168,0.068700
1483.4805,0.069162
1485.3441,0.069540
1487.2078,0.070936
1489.0715,0.073660
1490.9351,0.076106
1492.7988,0.075931
1494.6625,0.075971
1496.5261,0.078440
1498.3898,0.081246
1500.2535,0.082004
1502.1171,0.081648
1503.9808,0.081458
1505.8445,0.084474
1507.7082,0.091908
1509.5718,0.091475
1511.4355,0.090519
1513.2992,0.090828
1515.1628,0.091491
1517.0265,0.093074
1518.8902,0.093954
1520.7538,0.095622
1522.6175,0.098511
1524.4812,0.098561
1526.3448,0.099557
1528.2085,0.100991
1530.0722,0.101229
1531.9359,0.102537
1533.7995,0.105816
1535.6632,0.106550
1537.5269,0.106301
1539.3905,0.110636
1541.2542,0.118475
1543.1179,0.120095
1544.9815,0.121783
1546.8452,0.123197
1548.7089,0.124807
1550.5725,0.127764
1552.4362,0.129843
1554.2999,0.131717
1556.1635,0.133874
1558.0272,0.138515
1559.8909,0.150166
1561.7546,0.147952
1563.6182,0.146302
1565.4819,0.147853
1567.3456,0.149674
1569.2092,0.153130
1571.0729,0.156980
1572.9366,0.157010
1574.8002,0.158634
1576.6639,0.164163
1578.5276,0.166600
1580.3912,0.166756
1582.2549,0.168150
1584.1186,0.169440
1585.9822,0.170244
1587.8459,0.170590
1589.7096,0.170307
1591.5733,0.169288
1593.4369,0.167860
1595.3006,0.166292
1597.1643,0.164321
1599.0279,0.161918
1600.8916,0.159506
1602.7553,0.157143
1604.6189,0.154818
1606.4826,0.152717
1608.3463,0.150602
1610.2099,0.148001
1612.0736,0.144692
1613.9373,0.140574
1615.8010,0.135540
1617.6646,0.128224
1619.5283,0.121735
1621.3920,0.116481
1623.2556,0.109306
1625.1193,0.101501
1626.9830,0.094502
1628.8466,0.085871
1630.7103,0.077578
1632.5740,0.070814
1634.4376,0.063960
1636.3013,0.056480
1638.1650,0.052693
1640.0286,0.051840
1641.8923,0.051234
1643.7560,0.051341
1645.6197,0.052515
1647.4833,0.055157
1649.3470,0.056642
1651.2107,0.057881
1653.0743,0.061719
1654.9380,0.065885
1656.8017,0.066022
1658.6653,0.066700
1660.5290,0.067285
1662.3927,0.067542
1664.2563,0.066933
1666.1200,0.065917
1667.9837,0.065156
1669.8474,0.064445
1671.7110,0.064003
1673.5747,0.064635
1675.4384,0.066383
1677.3020,0.068425
1679.1657,0.069942
1681.0294,0.071983
1682.8930,0.074324
1684.7567,0.077361
1686.6204,0.077543
1688.4840,0.075765
1690.3477,0.072938
1692.2114,0.069395
1694.0750,0.066178
1695.9387,0.062063
1697.8024,0.057819
1699.6661,0.055102
1701.5297,0.048997
1703.3934,0.044394
1705.2571,0.039400
1707.1207,0.032591
1708.9844,0.028127
1710.8481,0.024981
1712.7117,0.022385
1714.5754,0.020491
1716.4391,0.018968
1718.3027,0.018119
1720.1664,0.017515
1722.0301,0.016914
1723.8937,0.015690
1725.7574,0.014092
1727.6211,0.012582
1729.4848,0.011347
1731.3484,0.010450
1733.2121,0.009692
1735.0758,0.008419
1736.9394,0.007920
1738.8031,0.007958
1740.6668,0.007802
1742.5304,0.007456
1744.3941,0.007213
1746.2578,0.006979
1748.1214,0.006826
1749.9851,0.006519
1751.8488,0.006236
1753.7125,0.006114
1755.5761,0.006088
1757.4398,0.005913
1759.3035,0.005838
1761.1671,0.005831
1763.0308,0.005765
1764.8945,0.005744
1766.7581,0.005918
1768.6218,0.005929
1770.4855,0.005695
1772.3491,0.005503
1774.2128,0.005479
1776.0765,0.005505
1777.9401,0.005618
1779.8038,0.005714
1781.6675,0.005696
1783.5312,0.005587
1785.3948,0.005640
1787.2585,0.005630
1789.1222,0.005694
1790.9858,0.005724
1792.8495,0.005528
1794.7132,0.005451
1796.5768,0.005615
1798.4405,0.005650
1800.3042,0.005690
1802.1678,0.005787
1804.0315,0.005886
1805.8952,0.006071
1807.7589,0.006137
1809.6225,0.005880
1811.4862,0.005710
1813.3499,0.005611
1815.2135,0.005612
1817.0772,0.005596
1818.9409,0.005647
1820.8045,0.005819
1822.6682,0.005966
1824.5319,0.005860
1826.3955,0.005830
1828.2592,0.005725
1830.1229,0.005583
1831.9865,0.005373
1833.8502,0.005379
1835.7139,0.005734
1837.5776,0.005969
1839.4412,0.005858
1841.3049,0.005841
1843.1686,0.005653
1845.0322,0.005429
1846.8959,0.005240
1848.7596,0.005201
1850.6232,0.005442
1852.4869,0.005874
1854.3506,0.006026
1856.2142,0.005916
1858.0779,0.005827
1859.9416,0.005695
1861.8052,0.005416
1863.6689,0.005457
1865.5326,0.005616
1867.3963,0.005906
1869.2599,0.005917
1871.1236,0.005658
1872.9873,0.005659
1874.8509,0.005905
1876.7146,0.005913
1878.5783,0.005929
1880.4419,0.005793
1882.3056,0.005593
1884.1693,0.005684
1886.0329,0.005832
1887.8966,0.005741
1889.7603,0.005596
1891.6240,0.005785
1893.4876,0.006071
1895.3513,0.005928
1897.2150,0.005969
1899.0786,0.006118
1900.9423,0.006048
1902.8060,0.005783
1904.6696,0.005779
1906.5333,0.005756
1908.3970,0.005335
1910.2606,0.005180
1912.1243,0.005608
1913.9880,0.005837
1915.8516,0.006078
1917.7153,0.005751
1919.5790,0.005436
1921.4427,0.005611
1923.3063,0.005732
1925.1700,0.005507
1927.0337,0.005215
1928.8973,0.005362
1930.7610,0.005698
1932.6247,0.005448
1934.4883,0.004673
1936.3520,0.004000
1938.2157,0.004446
1940.0793,0.005305
1941.9430,0.005846
1943.8067,0.005523
1945.6704,0.005224
1947.5340,0.005093
1949.3977,0.005135
1951.2614,0.005366
1953.1250,0.005564
1954.9887,0.004581
1956.8524,0.003835
1958.7160,0.004398
1960.5797,0.003929
1962.4434,0.002096
1964.3070,0.001361
1966.1707,0.001015
1968.0344,0.001023
1969.8980,0.001538
1971.7617,0.002385
1973.6254,0.002903
1975.4891,0.003520
1977.3527,0.003922
1979.2164,0.004394
1981.0801,0.004023
1982.9437,0.003379
1984.8074,0.002455
1986.6711,0.001763
1988.5347,0.002540
1990.3984,0.004197
1992.2621,0.004372
1994.1257,0.004279
1995.9894,0.004639
1997.8531,0.004687
1999.7167,0.004535
2001.5804,0.004298
2003.4441,0.003506
2005.3078,0.003250
2007.1714,0.002329
2009.0351,0.002392
2010.8988,0.002830
2012.7624,0.003518
2014.6261,0.003480
2016.4898,0.002849
2018.3534,0.002271
2020.2171,0.002784
2022.0808,0.002265
2023.9444,0.002252
2025.8081,0.002350
2027.6718,0.002795
2029.5355,0.002681
2031.3991,0.003200
2033.2628,0.004047
2035.1265,0.003962
2036.9901,0.002929
2038.8538,0.002429
2040.7175,0.002747
2042.5811,0.004261
2044.4448,0.004286
2046.3085,0.003713
2048.1721,0.005654
2050.0358,0.006922
2051.8995,0.005908
2053.7631,0.005680
2055.6268,0.006440
2057.4905,0.007177
2059.3542,0.006883
2061.2178,0.006339
2063.0815,0.006200
2064.9452,0.006340
2066.8088,0.006518
2068.6725,0.007570
2070.5362,0.007651
2072.3998,0.007298
2074.2635,0.007716
2076.1272,0.008200
2077.9908,0.008144
2079.8545,0.008162
2081.7182,0.008332
2083.5819,0.008451
2085.4455,0.008593
2087.3092,0.008526
2089.1729,0.007955
2091.0365,0.007935
2092.9002,0.008118
2094.7639,0.008001
2096.6275,0.008445
2098.4912,0.008872
2100.3549,0.008399
2102.2185,0.008337
2104.0822,0.008788
2105.9459,0.009107
2107.8095,0.008479
2109.6732,0.008032
2111.5369,0.008523
2113.4006,0.008998
2115.2642,0.009082
2117.1279,0.008944
2118.9916,0.008686
2120.8552,0.008682
2122.7189,0.008500
2124.5826,0.008498
2126.4462,0.008657
2128.3099,0.008839
2130.1736,0.008491
2132.0372,0.008124
2133.9009,0.007949
2135.7646,0.007623
2137.6282,0.007173
2139.4919,0.006609
2141.3556,0.006469
2143.2193,0.006801
2145.0829,0.006856
2146.9466,0.006780
2148.8103,0.006365
2150.6739,0.004851
2152.5376,0.002978
2154.4013,0.002987
2156.2649,0.003036
2158.1286,0.002396
2159.9923,0.002981
2161.8559,0.005998
2163.7196,0.006183
2165.5833,0.005203
2167.4470,0.005369
2169.3106,0.005863
2171.1743,0.007157
2173.0380,0.007946
2174.9016,0.006970
2176.7653,0.007039
2178.6290,0.005947
2180.4926,0.004038
2182.3563,0.004114
2184.2200,0.006044
2186.0836,0.006099
2187.9473,0.005491
2189.8110,0.005891
2191.6746,0.006739
2193.5383,0.007983
2195.4020,0.008631
2197.2657,0.008211
2199.1293,0.007339
2200.9930,0.007508
2202.8567,0.007990
2204.7203,0.008471
2206.5840,0.009139
2208.4477,0.009690
2210.3113,0.009565
2212.1750,0.009147
2214.0387,0.009742
2215.9023,0.009312
2217.7660,0.008123
2219.6297,0.008525
2221.4934,0.010314
2223.3570,0.010226
2225.2207,0.009003
2227.0844,0.009669
2228.9480,0.010557
2230.8117,0.010261
2232.6754,0.010153
2234.5390,0.010174
2236.4027,0.010514
2238.2664,0.010429
2240.1300,0.009957
2241.9937,0.010719
2243.8574,0.011359
2245.7210,0.011625
2247.5847,0.011329
2249.4484,0.011224
2251.3121,0.011623
2253.1757,0.012129
2255.0394,0.011958
2256.9031,0.011987
2258.7667,0.012363
2260.6304,0.012573
2262.4941,0.012690
2264.3577,0.012552
2266.2214,0.012814
2268.0851,0.012815
2269.9487,0.012540
2271.8124,0.012478
2273.6761,0.012927
2275.5397,0.013671
2277.4034,0.013630
2279.2671,0.013894
2281.1308,0.014793
2282.9944,0.014998
2284.8581,0.014674
2286.7218,0.014080
2288.5854,0.013948
2290.4491,0.014478
2292.3128,0.014806
2294.1764,0.014797
2296.0401,0.014672
2297.9038,0.014803
2299.7674,0.015062
2301.6311,0.015186
2303.4948,0.014871
2305.3585,0.014696
2307.2221,0.014663
2309.0858,0.014727
2310.9495,0.014990
2312.8131,0.014989
2314.6768,0.014768
2316.5405,0.014828
2318.4041,0.014777
2320.2678,0.014882
2322.1315,0.015496
2323.9951,0.015845
2325.8588,0.015458
2327.7225,0.014851
2329.5861,0.014432
2331.4498,0.014074
2333.3135,0.013924
2335.1772,0.014018
2337.0408,0.013963
2338.9045,0.014035
2340.7682,0.014213
2342.6318,0.014320
2344.4955,0.014533
2346.3592,0.014619
2348.2228,0.014234
2350.0865,0.013836
2351.9502,0.013811
2353.8138,0.013860
2355.6775,0.014040
2357.5412,0.014014
2359.4049,0.014058
2361.2685,0.014200
2363.1322,0.014263
2364.9959,0.013998
2366.8595,0.013706
2368.7232,0.013744
2370.5869,0.014253
2372.4505,0.014560
2374.3142,0.014521
2376.1779,0.014550
2378.0415,0.014760
2379.9052,0.014814
2381.7689,0.015055
2383.6325,0.015011
2385.4962,0.014933
2387.3599,0.015201
2389.2236,0.015009
2391.0872,0.015023
2392.9509,0.014913
2394.8146,0.014803
2396.6782,0.015007
2398.5419,0.015108
2400.4056,0.015145
2402.2692,0.015064
2404.1329,0.014981
2405.9966,0.015070
2407.8602,0.015174
2409.7239,0.015359
2411.5876,0.015659
2413.4512,0.015930
2415.3149,0.016180
2417.1786,0.016071
2419.0423,0.015963
2420.9059,0.016318
2422.7696,0.016523
2424.6333,0.016284
2426.4969,0.016128
2428.3606,0.015881
2430.2243,0.015555
2432.0879,0.015635
2433.9516,0.016112
2435.8153,0.016547
2437.6789,0.016457
2439.5426,0.016023
2441.4063,0.015857
2443.2700,0.016133
2445.1336,0.016305
2446.9973,0.016189
2448.8610,0.016227
2450.7246,0.016513
2452.5883,0.016811
2454.4520,0.016694
2456.3156,0.016158
2458.1793,0.015807
2460.0430,0.016123
2461.9066,0.016517
2463.7703,0.016562
2465.6340,0.016350
2467.4976,0.016341
2469.3613,0.016423
2471.2250,0.016359
2473.0887,0.016252
2474.9523,0.016651
2476.8160,0.016896
2478.6797,0.016669
2480.5433,0.016691
2482.4070,0.017119
2484.2707,0.017321
2486.1343,0.016968
2487.9980,0.017026
2489.8617,0.017275
2491.7253,0.017321
2493.5890,0.017336
2495.4527,0.017251
2497.3164,0.017230
2499.1800,0.017718
2501.0437,0.018226
2502.9074,0.018282
2504.7710,0.017569
2506.6347,0.017453
2508.4984,0.017652
2510.3620,0.017794
2512.2257,0.018257
2514.0894,0.018386
2515.9530,0.018217
2517.8167,0.018348
2519.6804,0.018527
2521.5440,0.018592
2523.4077,0.018940
2525.2714,0.019084
2527.1351,0.018917
