Wavenumber,Intensity
650.4205,0.260786
652.2841,0.254527
654.1478,0.247834
656.0115,0.242284
657.8751,0.240174
659.7388,0.238213
661.6025,0.233711
663.4661,0.228498
665.3298,0.225383
667.1935,0.224988
669.0571,0.228769
670.9208,0.225439
672.7845,0.224027
674.6481,0.223265
676.5118,0.222917
678.3755,0.224235
680.2392,0.225348
682.1028,0.224598
683.9665,0.224869
685.8302,0.224230
687.6938,0.224489
689.5575,0.224032
691.4212,0.224113
693.2848,0.224629
695.1485,0.226031
697.0122,0.227547
698.8758,0.230288
700.7395,0.231810
702.6032,0.230201
704.4669,0.225340
706.3305,0.217981
708.1942,0.208217
710.0579,0.197558
711.9215,0.186645
713.7852,0.177011
715.6489,0.168307
717.5125,0.159988
719.3762,0.152138
721.2399,0.145468
723.1035,0.139531
724.9672,0.133311
726.8309,0.127714
728.6945,0.123706
730.5582,0.119065
732.4219,0.113994
734.2856,0.109536
736.1492,0.105896
738.0129,0.103828
739.8766,0.104291
741.7402,0.106806
743.6039,0.110121
745.4676,0.111688
747.3312,0.111028
749.1949,0.109944
751.0586,0.109028
752.9222,0.107812
754.7859,0.106499
756.6496,0.105610
758.5132,0.104691
760.3769,0.103607
762.2406,0.102729
764.1043,0.101970
765.9679,0.101524
767.8316,0.101267
769.6953,0.101322
771.5589,0.101539
773.4226,0.102043
775.2863,0.102481
777.1499,0.103085
779.0136,0.104235
780.8773,0.105795
782.7409,0.107392
784.6046,0.108796
786.4683,0.110664
788.3320,0.113317
790.1956,0.115605
792.0593,0.117849
793.9230,0.120711
795.7866,0.123623
797.6503,0.126187
799.5140,0.128130
801.3776,0.129356
803.2413,0.129790
805.1050,0.128852
806.9686,0.127344
808.8323,0.125098
810.6960,0.121719
812.5596,0.117746
814.4233,0.113728
816.2870,0.109488
818.1507,0.105877
820.0143,0.102830
821.8780,0.100307
823.7417,0.098860
825.6053,0.099137
827.4690,0.101315
829.3327,0.102173
831.1963,0.095038
833.0600,0.080868
834.9237,0.068765
836.7873,0.062843
838.6510,0.060958
840.5147,0.060251
842.3784,0.059768
844.2420,0.059555
846.1057,0.059037
847.9694,0.058533
849.8330,0.058243
851.6967,0.057813
853.5604,0.057657
855.4240,0.057434
857.2877,0.057341
859.1514,0.057254
861.0150,0.057003
862.8787,0.056870
864.7424,0.056725
866.6060,0.056710
868.4697,0.056811
870.3334,0.056717
872.1971,0.056700
874.0607,0.056821
875.9244,0.056845
877.7881,0.057009
879.6517,0.057471
881.5154,0.057724
883.3791,0.057825
885.2427,0.058135
887.1064,0.058674
888.9701,0.059149
890.8337,0.059638
892.6974,0.060422
894.5611,0.061539
896.4247,0.062591
898.2884,0.063882
900.1521,0.065798
902.0158,0.068223
903.8794,0.071543
905.7431,0.076016
907.6068,0.081404
909.4704,0.087679
911.3341,0.095518
913.1978,0.104956
915.0614,0.109707
916.9251,0.099622
918.7888,0.079570
920.6524,0.064356
922.5161,0.057847
924.3798,0.055954
926.2435,0.055758
928.1071,0.056123
929.9708,0.056715
931.8345,0.057346
933.6981,0.057941
935.5618,0.058732
937.4255,0.059582
939.2891,0.060155
941.1528,0.060659
943.0165,0.061408
944.8801,0.062221
946.7438,0.063095
948.6075,0.063902
950.4711,0.064757
952.3348,0.065810
954.1985,0.066896
956.0622,0.067973
957.9258,0.069147
959.7895,0.070416
961.6532,0.071845
963.5168,0.073446
965.3805,0.075381
967.2442,0.078026
969.1078,0.081243
970.9715,0.084562
972.8352,0.088693
974.6988,0.095604
976.5625,0.107452
978.4262,0.127732
980.2899,0.156525
982.1535,0.167752
984.0172,0.134055
985.8809,0.090614
987.7445,0.071190
989.6082,0.068030
991.4719,0.068638
993.3355,0.069992
995.1992,0.071453
997.0629,0.072795
998.9265,0.074193
1000.7902,0.075627
1002.6539,0.076918
1004.5175,0.078232
1006.3812,0.079582
1008.2449,0.080941
1010.1086,0.082299
1011.9722,0.083486
1013.8359,0.084477
1015.6996,0.085426
1017.5632,0.086359
1019.4269,0.087229
1021.2906,0.088100
1023.1542,0.089040
1025.0179,0.090124
1026.8816,0.091333
1028.7452,0.092820
1030.6089,0.094632
1032.4726,0.096660
1034.3362,0.098946
1036.1999,0.101687
1038.0636,0.104878
1039.9273,0.108548
1041.7909,0.112911
1043.6546,0.117997
1045.5183,0.123274
1047.3819,0.127426
1049.2456,0.127676
1051.1093,0.121123
1052.9729,0.109333
1054.8366,0.097963
1056.7003,0.090697
1058.5639,0.087485
1060.4276,0.086758
1062.2913,0.087210
1064.1550,0.088098
1066.0186,0.089307
1067.8823,0.091011
1069.7460,0.093107
1071.6096,0.095304
1073.4733,0.097699
1075.3370,0.100318
1077.2006,0.102880
1079.0643,0.105551
1080.9280,0.108610
1082.7916,0.112004
1084.6553,0.115696
1086.5190,0.119830
1088.3826,0.124410
1090.2463,0.129457
1092.1100,0.135350
1093.9737,0.142184
1095.8373,0.149663
1097.7010,0.157921
1099.5647,0.166997
1101.4283,0.176261
1103.2920,0.184622
1105.1557,0.190629
1107.0193,0.192037
1108.8830,0.186646
1110.7467,0.174291
1112.6103,0.157740
1114.4740,0.140671
1116.3377,0.125353
1118.2014,0.112851
1120.0650,0.103601
1121.9287,0.097291
1123.7924,0.093157
1125.6560,0.090157
1127.5197,0.087418
1129.3834,0.084627
1131.2470,0.081939
1133.1107,0.079695
1134.9744,0.077944
1136.8380,0.076647
1138.7017,0.075869
1140.5654,0.075613
1142.4290,0.075655
1144.2927,0.075759
1146.1564,0.075956
1148.0201,0.076256
1149.8837,0.076664
1151.7474,0.077247
1153.6111,0.077967
1155.4747,0.078997
1157.3384,0.080352
1159.2021,0.081945
1161.0657,0.083997
1162.9294,0.086535
1164.7931,0.089762
1166.6567,0.093903
1168.5204,0.098830
1170.3841,0.104069
1172.2477,0.107641
1174.1114,0.106974
1175.9751,0.101699
1177.8388,0.094471
1179.7024,0.088453
1181.5661,0.084890
1183.4298,0.083292
1185.2934,0.082750
1187.1571,0.082700
1189.0208,0.082769
1190.8844,0.082751
1192.7481,0.082698
1194.6118,0.082694
1196.4754,0.082761
1198.3391,0.082936
1200.2028,0.083222
1202.0665,0.083593
1203.9301,0.084032
1205.7938,0.084495
1207.6575,0.084957
1209.5211,0.085504
1211.3848,0.086118
1213.2485,0.086609
1215.1121,0.087076
1216.9758,0.087676
1218.8395,0.088363
1220.7031,0.089034
1222.5668,0.089587
1224.4305,0.090088
1226.2941,0.090676
1228.1578,0.091310
1230.0215,0.091912
1231.8852,0.092445
1233.7488,0.092964
1235.6125,0.093572
1237.4762,0.094263
1239.3398,0.095025
1241.2035,0.095730
1243.0672,0.096412
1244.9308,0.097193
1246.7945,0.097957
1248.6582,0.098774
1250.5218,0.099671
1252.3855,0.100634
1254.2492,0.101646
1256.1129,0.102598
1257.9765,0.103631
1259.8402,0.104999
1261.7039,0.106512
1263.5675,0.107860
1265.4312,0.109061
1267.2949,0.109741
1269.1585,0.109776
1271.0222,0.109635
1272.8859,0.109660
1274.7495,0.110063
1276.6132,0.110923
1278.4769,0.112248
1280.3405,0.114050
1282.2042,0.116172
1284.0679,0.118504
1285.9316,0.121280
1287.7952,0.124547
1289.6589,0.128230
1291.5226,0.132586
1293.3862,0.137733
1295.2499,0.143816
1297.1136,0.151132
1298.9772,0.159814
1300.8409,0.170118
1302.7046,0.181109
1304.5682,0.188995
1306.4319,0.188004
1308.2956,0.172608
1310.1592,0.144427
1312.0229,0.115803
1313.8866,0.097512
1315.7503,0.090900
1317.6139,0.091010
1319.4776,0.093781
1321.3413,0.097100
1323.2049,0.100525
1325.0686,0.104208
1326.9323,0.107767
1328.7959,0.111140
1330.6596,0.114363
1332.5233,0.116917
1334.3869,0.118516
1336.2506,0.119791
1338.1143,0.121841
1339.9780,0.124460
1341.8416,0.125434
1343.7053,0.125489
1345.5690,0.126294
1347.4326,0.127630
1349.2963,0.129352
1351.1600,0.131386
1353.0236,0.133959
1354.8873,0.137202
1356.7510,0.140412
1358.6146,0.143302
1360.4783,0.147324
1362.3420,0.153802
1364.2056,0.159564
1366.0693,0.162871
1367.9330,0.167620
1369.7967,0.173118
1371.6603,0.177652
1373.5240,0.184313
1375.3877,0.192045
1377.2513,0.197278
1379.1150,0.203745
1380.9787,0.212154
1382.8423,0.220903
1384.7060,0.230354
1386.5697,0.242615
1388.4333,0.256208
1390.2970,0.263177
1392.1607,0.265947
1394.0244,0.265757
1395.8880,0.257863
1397.7517,0.244642
1399.6154,0.229534
1401.4790,0.214940
1403.3427,0.201257
1405.2064,0.181411
1407.0700,0.156535
1408.9337,0.133150
1410.7974,0.112365
1412.6610,0.098181
1414.5247,0.092135
1416.3884,0.092392
1418.2520,0.099170
1420.1157,0.111135
1421.9794,0.116924
1423.8431,0.114205
1425.7067,0.102547
1427.5704,0.089988
1429.4341,0.082525
1431.2977,0.079810
1433.1614,0.079954
1435.0251,0.082212
1436.8887,0.087171
1438.7524,0.090230
1440.6161,0.091369
1442.4797,0.093510
1444.3434,0.095396
1446.2071,0.096755
1448.0707,0.097283
1449.9344,0.095109
1451.7981,0.091061
1453.6618,0.087025
1455.5254,0.086163
1457.3891,0.091021
1459.2528,0.093237
1461.1164,0.091988
1462.9801,0.092198
1464.8438,0.093246
1466.7074,0.092228
1468.5711,0.089602
1470.4348,0.088301
1472.2984,0.089469
1474.1621,0.090737
1476.0258,0.090276
1477.8895,0.090076
1479.7531,0.089982
1481.6168,0.090684
1483.4805,0.091132
1485.3441,0.091422
1487.2078,0.092798
1489.0715,0.095918
1490.9351,0.098662
1492.7988,0.098307
1494.6625,0.098435
1496.5261,0.101738
1498.3898,0.104914
1500.2535,0.105515
1502.1171,0.104916
1503.9808,0.104722
1505.8445,0.108527
1507.7082,0.117830
1509.5718,0.117525
1511.4355,0.116685
1513.2992,0.117405
1515.1628,0.118777
1517.0265,0.121339
1518.8902,0.122892
1520.7538,0.125378
1522.6175,0.129600
1524.4812,0.129729
1526.3448,0.131255
1528.2085,0.132873
1530.0722,0.133009
1531.9359,0.134552
1533.7995,0.138270
1535.6632,0.138521
1537.5269,0.137937
1539.3905,0.143251
1541.2542,0.152585
1543.1179,0.154033
1544.9815,0.155806
1546.8452,0.157230
1548.7089,0.158993
1550.5725,0.162595
1552.4362,0.165161
1554.2999,0.167126
1556.1635,0.169912
1558.0272,0.177233
1559.8909,0.193756
1561.7546,0.190264
1563.6182,0.188618
1565.4819,0.191723
1567.3456,0.195413
1569.2092,0.201169
1571.0729,0.207281
1572.9366,0.208532
1574.8002,0.212992
1576.6639,0.222912
1578.5276,0.227379
1580.3912,0.228452
1582.2549,0.232068
1584.1186,0.235423
1585.9822,0.237828
1587.8459,0.239238
1589.7096,0.239995
1591.5733,0.239786
1593.4369,0.238613
1595.3006,0.236488
1597.1643,0.233862
1599.0279,0.230581
1600.8916,0.227076
1602.7553,0.223634
1604.6189,0.220364
1606.4826,0.217566
1608.3463,0.215217
1610.2099,0.212263
1612.0736,0.208062
1613.9373,0.203177
1615.8010,0.197227
1617.6646,0.186880
1619.5283,0.176827
1621.3920,0.169400
1623.2556,0.159602
1625.1193,0.147856
1626.9830,0.137557
1628.8466,0.125422
1630.7103,0.113274
1632.5740,0.103712
1634.4376,0.094338
1636.3013,0.083444
1638.1650,0.077356
1640.0286,0.076144
1641.8923,0.075390
1643.7560,0.076225
1645.6197,0.078695
1647.4833,0.082583
1649.3470,0.084736
1651.2107,0.087379
1653.0743,0.093926
1654.9380,0.098971
1656.8017,0.098384
1658.6653,0.099286
1660.5290,0.099829
1662.3927,0.099324
1664.2563,0.097264
1666.1200,0.094968
1667.9837,0.093052
1669.8474,0.091238
1671.7110,0.089845
1673.5747,0.090486
1675.4384,0.093369
1677.3020,0.097014
1679.1657,0.100183
1681.0294,0.105151
1682.8930,0.110800
1684.7567,0.118363
1686.6204,0.120565
1688.4840,0.119373
1690.3477,0.117462
1692.2114,0.113846
1694.0750,0.109866
1695.9387,0.105098
1697.8024,0.099271
1699.6661,0.095112
1701.5297,0.085373
1703.3934,0.077223
1705.2571,0.068065
1707.1207,0.055864
1708.9844,0.047776
1710.8481,0.042264
1712.7117,0.037779
1714.5754,0.034748
1716.4391,0.031964
1718.3027,0.030140
1720.1664,0.028783
1722.0301,0.027779
1723.8937,0.025801
1725.7574,0.023353
1727.6211,0.021077
1729.4848,0.019046
1731.3484,0.017002
1733.2121,0.015814
1735.0758,0.014392
1736.9394,0.013784
1738.8031,0.013587
1740.6668,0.013089
1742.5304,0.012730
1744.3941,0.012713
1746.2578,0.012227
1748.1214,0.011854
1749.9851,0.011302
1751.8488,0.010901
1753.7125,0.010641
1755.5761,0.010788
1757.4398,0.010688
1759.3035,0.010756
1761.1671,0.010751
1763.0308,0.010617
1764.8945,0.010465
1766.7581,0.010545
1768.6218,0.010285
1770.4855,0.010280
1772.3491,0.010199
1774.2128,0.010061
1776.0765,0.010096
1777.9401,0.010396
1779.8038,0.010513
1781.6675,0.010530
1783.5312,0.010412
1785.3948,0.010524
1787.2585,0.010565
1789.1222,0.010694
1790.9858,0.010674
1792.8495,0.010481
1794.7132,0.010262
1796.5768,0.010539
1798.4405,0.010713
1800.3042,0.010784
1802.1678,0.010696
1804.0315,0.010899
1805.8952,0.011036
1807.7589,0.011220
1809.6225,0.011202
1811.4862,0.011204
1813.3499,0.011036
1815.2135,0.010899
1817.0772,0.010956
1818.9409,0.011261
1820.8045,0.011232
1822.6682,0.011343
1824.5319,0.011222
1826.3955,0.010955
1828.2592,0.010835
1830.1229,0.010788
1831.9865,0.010346
1833.8502,0.010526
1835.7139,0.010657
1837.5776,0.010718
1839.4412,0.010607
1841.3049,0.010796
1843.1686,0.010879
1845.0322,0.010796
1846.8959,0.010622
1848.7596,0.011039
1850.6232,0.011075
1852.4869,0.010980
1854.3506,0.011042
1856.2142,0.011288
1858.0779,0.011278
1859.9416,0.011150
1861.8052,0.010917
1863.6689,0.011051
1865.5326,0.011312
1867.3963,0.011401
1869.2599,0.011074
1871.1236,0.011224
1872.9873,0.011220
1874.8509,0.011203
1876.7146,0.011178
1878.5783,0.011476
1880.4419,0.011338
1882.3056,0.011285
1884.1693,0.011398
1886.0329,0.011551
1887.8966,0.011453
1889.7603,0.011427
1891.6240,0.011227
1893.4876,0.011170
1895.3513,0.011155
1897.2150,0.011329
1899.0786,0.011294
1900.9423,0.011343
1902.8060,0.011078
1904.6696,0.011090
1906.5333,0.011204
1908.3970,0.011631
1910.2606,0.011537
1912.1243,0.011284
1913.9880,0.011203
1915.8516,0.011637
1917.7153,0.011539
1919.5790,0.011164
1921.4427,0.010799
1923.3063,0.010803
1925.1700,0.010783
1927.0337,0.011280
1928.8973,0.011244
1930.7610,0.011417
1932.6247,0.011188
1934.4883,0.010862
1936.3520,0.010732
1938.2157,0.010742
1940.0793,0.010722
1941.9430,0.010960
1943.8067,0.010225
1945.6704,0.009845
1947.5340,0.009398
1949.3977,0.009452
1951.2614,0.009581
1953.1250,0.009503
1954.9887,0.008936
1956.8524,0.009160
1958.7160,0.009024
1960.5797,0.007878
1962.4434,0.006272
1964.3070,0.006210
1966.1707,0.004813
1968.0344,0.002775
1969.8980,0.002470
1971.7617,0.003972
1973.6254,0.003736
1975.4891,0.003593
1977.3527,0.003927
1979.2164,0.005133
1981.0801,0.006167
1982.9437,0.007098
1984.8074,0.006985
1986.6711,0.007834
1988.5347,0.009126
1990.3984,0.008797
1992.2621,0.007235
1994.1257,0.007793
1995.9894,0.008756
1997.8531,0.008560
1999.7167,0.007847
2001.5804,0.008663
2003.4441,0.008365
2005.3078,0.007838
2007.1714,0.007302
2009.0351,0.006061
2010.8988,0.005069
2012.7624,0.006284
2014.6261,0.007080
2016.4898,0.007062
2018.3534,0.005521
2020.2171,0.004452
2022.0808,0.004688
2023.9444,0.006394
2025.8081,0.006121
2027.6718,0.005408
2029.5355,0.004128
2031.3991,0.004532
2033.2628,0.004808
2035.1265,0.005778
2036.9901,0.006126
2038.8538,0.006321
2040.7175,0.006746
2042.5811,0.008774
2044.4448,0.009055
2046.3085,0.008796
2048.1721,0.009254
2050.0358,0.010702
2051.8995,0.010783
2053.7631,0.010701
2055.6268,0.011152
2057.4905,0.012203
2059.3542,0.012786
2061.2178,0.012764
2063.0815,0.012192
2064.9452,0.012863
2066.8088,0.013296
2068.6725,0.013031
2070.5362,0.012585
2072.3998,0.012685
2074.2635,0.013044
2076.1272,0.013758
2077.9908,0.014244
2079.8545,0.014438
2081.7182,0.014193
2083.5819,0.014789
2085.4455,0.015434
2087.3092,0.015836
2089.1729,0.015648
2091.0365,0.015253
2092.9002,0.014859
2094.7639,0.015210
2096.6275,0.015553
2098.4912,0.015514
2100.3549,0.015075
2102.2185,0.014851
2104.0822,0.014797
2105.9459,0.015558
2107.8095,0.015787
2109.6732,0.015987
2111.5369,0.015988
2113.4006,0.016106
2115.2642,0.016356
2117.1279,0.017102
2118.9916,0.017146
2120.8552,0.016159
2122.7189,0.015788
2124.5826,0.016036
2126.4462,0.015726
2128.3099,0.015894
2130.1736,0.015354
2132.0372,0.014067
2133.9009,0.014182
2135.7646,0.014895
2137.6282,0.014640
2139.4919,0.013367
2141.3556,0.012288
2143.2193,0.012198
2145.0829,0.011659
2146.9466,0.012287
2148.8103,0.011396
2150.6739,0.010410
2152.5376,0.009807
2154.4013,0.009043
2156.2649,0.007911
2158.1286,0.007378
2159.9923,0.008227
2161.8559,0.008555
2163.7196,0.008054
2165.5833,0.008418
2167.4470,0.008183
2169.3106,0.008679
2171.1743,0.009621
2173.0380,0.010761
2174.9016,0.010764
2176.7653,0.011587
2178.6290,0.011877
2180.4926,0.011703
2182.3563,0.011366
2184.2200,0.011873
2186.0836,0.012039
2187.9473,0.012288
2189.8110,0.012007
2191.6746,0.012543
2193.5383,0.012714
2195.4020,0.013643
2197.2657,0.013493
2199.1293,0.012995
2200.9930,0.013804
2202.8567,0.014791
2204.7203,0.014795
2206.5840,0.014860
2208.4477,0.014579
2210.3113,0.014973
2212.1750,0.014824
2214.0387,0.015321
2215.9023,0.016275
2217.7660,0.016691
2219.6297,0.016009
2221.4934,0.015927
2223.3570,0.016501
2225.2207,0.017147
2227.0844,0.017662
2228.9480,0.017719
2230.8117,0.016853
2232.6754,0.016760
2234.5390,0.017545
2236.4027,0.018420
2238.2664,0.018599
2240.1300,0.019017
2241.9937,0.019138
2243.8574,0.018805
2245.7210,0.018642
2247.5847,0.018661
2249.4484,0.019113
2251.3121,0.019642
2253.1757,0.019450
2255.0394,0.019637
2256.9031,0.019769
2258.7667,0.019892
2260.6304,0.020212
2262.4941,0.020241
2264.3577,0.020241
2266.2214,0.020987
2268.0851,0.021585
2269.9487,0.021959
2271.8124,0.021734
2273.6761,0.022079
2275.5397,0.022584
2277.4034,0.023511
2279.2671,0.024058
2281.1308,0.024045
2282.9944,0.024021
2284.8581,0.024137
2286.7218,0.024646
2288.5854,0.025028
2290.4491,0.024964
2292.3128,0.024590
2294.1764,0.024297
2296.0401,0.024459
2297.9038,0.024755
2299.7674,0.024885
2301.6311,0.024839
2303.4948,0.024942
2305.3585,0.025010
2307.2221,0.024947
2309.0858,0.024855
2310.9495,0.024939
2312.8131,0.025028
2314.6768,0.025161
2316.5405,0.025373
2318.4041,0.025234
2320.2678,0.025053
2322.1315,0.024798
2323.9951,0.024835
2325.8588,0.024703
2327.7225,0.024202
2329.5861,0.023935
2331.4498,0.023699
2333.3135,0.023607
2335.1772,0.023788
2337.0408,0.024021
2338.9045,0.024162
2340.7682,0.024053
2342.6318,0.024127
2344.4955,0.024595
2346.3592,0.024463
2348.2228,0.023957
2350.0865,0.023600
2351.9502,0.023586
2353.8138,0.023624
2355.6775,0.023468
2357.5412,0.022952
2359.4049,0.023070
2361.2685,0.023258
2363.1322,0.023110
2364.9959,0.023482
2366.8595,0.023643
2368.7232,0.023983
2370.5869,0.024466
2372.4505,0.024661
2374.3142,0.024981
2376.1779,0.025037
2378.0415,0.024971
2379.9052,0.025191
2381.7689,0.025402
2383.6325,0.025143
2385.4962,0.025025
2387.3599,0.025225
2389.2236,0.025338
2391.0872,0.025335
2392.9509,0.025395
2394.8146,0.025466
2396.6782,0.025716
2398.5419,0.025730
2400.4056,0.025442
2402.2692,0.025352
2404.1329,0.025699
2405.9966,0.025868
2407.8602,0.025798
2409.7239,0.026158
2411.5876,0.026297
2413.4512,0.026122
2415.3149,0.025910
2417.1786,0.025914
2419.0423,0.026327
2420.9059,0.026558
2422.7696,0.026523
2424.6333,0.026576
2426.4969,0.027082
2428.3606,0.027169
2430.2243,0.026770
2432.0879,0.026440
2433.9516,0.026555
2435.8153,0.026919
2437.6789,0.027051
2439.5426,0.027247
2441.4063,0.027108
2443.2700,0.026775
2445.1336,0.027034
2446.9973,0.027233
2448.8610,0.026870
2450.7246,0.026720
2452.5883,0.027056
2454.4520,0.027021
2456.3156,0.026808
2458.1793,0.026637
2460.0430,0.026400
2461.9066,0.026067
2463.7703,0.026210
2465.6340,0.026476
2467.4976,0.026764
2469.3613,0.026541
2471.2250,0.026440
2473.0887,0.026784
2474.9523,0.026648
2476.8160,0.026272
2478.6797,0.026405
2480.5433,0.026469
2482.4070,0.026793
2484.2707,0.026995
2486.1343,0.027068
2487.9980,0.027001
2489.8617,0.027127
2491.7253,0.027611
2493.5890,0.028216
2495.4527,0.027998
2497.3164,0.027904
2499.1800,0.027954
2501.0437,0.028185
2502.9074,0.028553
2504.7710,0.028445
2506.6347,0.028328
2508.4984,0.028475
2510.3620,0.028611
2512.2257,0.028683
2514.0894,0.028613
2515.9530,0.028638
2517.8167,0.028626
2519.6804,0.029014
2521.5440,0.029271
2523.4077,0.029262
2525.2714,0.029524
2527.1351,0.029737
