Wavenumber,Intensity
650.4205,0.256226
652.2841,0.252938
654.1478,0.246583
656.0115,0.239262
657.8751,0.236497
659.7388,0.232029
661.6025,0.228643
663.4661,0.226959
665.3298,0.224766
667.1935,0.224959
669.0571,0.225672
670.9208,0.222392
672.7845,0.221702
674.6481,0.220552
676.5118,0.220000
678.3755,0.220362
680.2392,0.221872
682.1028,0.222231
683.9665,0.222500
685.8302,0.221058
687.6938,0.220918
689.5575,0.222267
691.4212,0.222505
693.2848,0.221404
695.1485,0.222514
697.0122,0.224432
698.8758,0.226103
700.7395,0.226015
702.6032,0.225480
704.4669,0.221887
706.3305,0.215614
708.1942,0.206830
710.0579,0.196410
711.9215,0.186009
713.7852,0.176355
715.6489,0.167132
717.5125,0.159559
719.3762,0.152352
721.2399,0.145870
723.1035,0.139648
724.9672,0.133736
726.8309,0.128127
728.6945,0.123176
730.5582,0.118879
732.4219,0.114328
734.2856,0.109485
736.1492,0.105847
738.0129,0.104233
739.8766,0.104805
741.7402,0.107505
743.6039,0.110543
745.4676,0.111431
747.3312,0.110860
749.1949,0.110027
751.0586,0.108843
752.9222,0.107581
754.7859,0.106465
756.6496,0.105348
758.5132,0.104264
760.3769,0.103098
762.2406,0.102361
764.1043,0.101933
765.9679,0.101899
767.8316,0.101560
769.6953,0.101362
771.5589,0.101707
773.4226,0.102295
775.2863,0.102940
777.1499,0.103651
779.0136,0.104376
780.8773,0.105700
782.7409,0.107417
784.6046,0.109036
786.4683,0.111029
788.3320,0.113533
790.1956,0.115772
792.0593,0.118168
793.9230,0.120806
795.7866,0.123263
797.6503,0.125415
799.5140,0.127317
801.3776,0.128522
803.2413,0.129241
805.1050,0.128973
806.9686,0.127384
808.8323,0.124863
810.6960,0.121582
812.5596,0.117721
814.4233,0.113746
816.2870,0.109733
818.1507,0.105812
820.0143,0.102627
821.8780,0.100504
823.7417,0.099343
825.6053,0.099466
827.4690,0.101472
829.3327,0.102306
831.1963,0.094842
833.0600,0.080494
834.9237,0.068882
836.7873,0.063501
838.6510,0.061641
840.5147,0.060841
842.3784,0.060321
844.2420,0.060080
846.1057,0.059982
847.9694,0.059755
849.8330,0.059350
851.6967,0.059100
853.5604,0.059021
855.4240,0.059008
857.2877,0.058936
859.1514,0.058731
861.0150,0.058609
862.8787,0.058376
864.7424,0.058233
866.6060,0.058151
868.4697,0.058151
870.3334,0.058136
872.1971,0.058127
874.0607,0.058488
875.9244,0.058721
877.7881,0.058594
879.6517,0.058791
881.5154,0.059380
883.3791,0.059963
885.2427,0.060324
887.1064,0.060494
888.9701,0.060776
890.8337,0.061503
892.6974,0.062628
894.5611,0.063796
896.4247,0.064842
898.2884,0.066281
900.1521,0.068224
902.0158,0.070844
903.8794,0.074207
905.7431,0.078746
907.6068,0.084437
909.4704,0.090928
911.3341,0.098685
913.1978,0.107403
915.0614,0.110666
916.9251,0.099650
918.7888,0.079991
920.6524,0.065461
922.5161,0.059403
924.3798,0.057657
926.2435,0.057433
928.1071,0.057879
929.9708,0.058519
931.8345,0.059303
933.6981,0.060282
935.5618,0.061259
937.4255,0.062058
939.2891,0.062678
941.1528,0.063290
943.0165,0.064052
944.8801,0.064803
946.7438,0.065604
948.6075,0.066492
950.4711,0.067475
952.3348,0.068535
954.1985,0.069661
956.0622,0.070918
957.9258,0.072210
959.7895,0.073405
961.6532,0.074695
963.5168,0.076316
965.3805,0.078327
967.2442,0.080768
969.1078,0.083850
970.9715,0.087204
972.8352,0.091175
974.6988,0.097797
976.5625,0.109372
978.4262,0.129090
980.2899,0.156358
982.1535,0.165984
984.0172,0.133092
985.8809,0.091515
987.7445,0.073144
989.6082,0.070478
991.4719,0.071401
993.3355,0.072884
995.1992,0.074519
997.0629,0.076049
998.9265,0.077498
1000.7902,0.078890
1002.6539,0.080246
1004.5175,0.081627
1006.3812,0.083040
1008.2449,0.084379
1010.1086,0.085538
1011.9722,0.086712
1013.8359,0.088006
1015.6996,0.089093
1017.5632,0.089945
1019.4269,0.090791
1021.2906,0.091766
1023.1542,0.092924
1025.0179,0.094256
1026.8816,0.095706
1028.7452,0.097348
1030.6089,0.099125
1032.4726,0.101095
1034.3362,0.103437
1036.1999,0.106290
1038.0636,0.109664
1039.9273,0.113472
1041.7909,0.117757
1043.6546,0.122601
1045.5183,0.127652
1047.3819,0.131412
1049.2456,0.130992
1051.1093,0.124136
1052.9729,0.112715
1054.8366,0.101821
1056.7003,0.094876
1058.5639,0.091965
1060.4276,0.091548
1062.2913,0.092097
1064.1550,0.092965
1066.0186,0.094330
1067.8823,0.096221
1069.7460,0.098414
1071.6096,0.100718
1073.4733,0.103131
1075.3370,0.105640
1077.2006,0.108280
1079.0643,0.111097
1080.9280,0.114156
1082.7916,0.117535
1084.6553,0.121175
1086.5190,0.125161
1088.3826,0.129756
1090.2463,0.135025
1092.1100,0.140960
1093.9737,0.147564
1095.8373,0.154800
1097.7010,0.162771
1099.5647,0.171368
1101.4283,0.180049
1103.2920,0.187723
1105.1557,0.192718
1107.0193,0.193044
1108.8830,0.186738
1110.7467,0.173867
1112.6103,0.157393
1114.4740,0.140610
1116.3377,0.125634
1118.2014,0.113564
1120.0650,0.104735
1121.9287,0.098858
1123.7924,0.095031
1125.6560,0.092210
1127.5197,0.089605
1129.3834,0.086843
1131.2470,0.084172
1133.1107,0.081882
1134.9744,0.080106
1136.8380,0.078909
1138.7017,0.078280
1140.5654,0.078176
1142.4290,0.078279
1144.2927,0.078335
1146.1564,0.078416
1148.0201,0.078723
1149.8837,0.079193
1151.7474,0.079791
1153.6111,0.080624
1155.4747,0.081765
1157.3384,0.083167
1159.2021,0.084753
1161.0657,0.086587
1162.9294,0.088901
1164.7931,0.091975
1166.6567,0.096018
1168.5204,0.100827
1170.3841,0.105633
1172.2477,0.108835
1174.1114,0.108195
1175.9751,0.103156
1177.8388,0.096227
1179.7024,0.090464
1181.5661,0.087111
1183.4298,0.085726
1185.2934,0.085406
1187.1571,0.085473
1189.0208,0.085517
1190.8844,0.085475
1192.7481,0.085358
1194.6118,0.085174
1196.4754,0.085145
1198.3391,0.085368
1200.2028,0.085701
1202.0665,0.086053
1203.9301,0.086424
1205.7938,0.086830
1207.6575,0.087247
1209.5211,0.087747
1211.3848,0.088372
1213.2485,0.088883
1215.1121,0.089320
1216.9758,0.089901
1218.8395,0.090592
1220.7031,0.091222
1222.5668,0.091767
1224.4305,0.092286
1226.2941,0.092798
1228.1578,0.093335
1230.0215,0.093856
1231.8852,0.094374
1233.7488,0.094999
1235.6125,0.095741
1237.4762,0.096530
1239.3398,0.097266
1241.2035,0.097931
1243.0672,0.098628
1244.9308,0.099324
1246.7945,0.100085
1248.6582,0.100962
1250.5218,0.101856
1252.3855,0.102800
1254.2492,0.103739
1256.1129,0.104644
1257.9765,0.105687
1259.8402,0.107067
1261.7039,0.108587
1263.5675,0.109903
1265.4312,0.110997
1267.2949,0.111657
1269.1585,0.111712
1271.0222,0.111496
1272.8859,0.111503
1274.7495,0.111975
1276.6132,0.112969
1278.4769,0.114378
1280.3405,0.116136
1282.2042,0.118241
1284.0679,0.120669
1285.9316,0.123530
1287.7952,0.126888
1289.6589,0.130625
1291.5226,0.134825
1293.3862,0.139858
1295.2499,0.145917
1297.1136,0.153099
1298.9772,0.161599
1300.8409,0.171670
1302.7046,0.182028
1304.5682,0.188648
1306.4319,0.185943
1308.2956,0.169225
1310.1592,0.141107
1312.0229,0.113465
1313.8866,0.096214
1315.7503,0.090330
1317.6139,0.090868
1319.4776,0.093982
1321.3413,0.097534
1323.2049,0.101052
1325.0686,0.104750
1326.9323,0.108280
1328.7959,0.111694
1330.6596,0.114938
1332.5233,0.117423
1334.3869,0.118903
1336.2506,0.119990
1338.1143,0.121841
1339.9780,0.124411
1341.8416,0.125465
1343.7053,0.125516
1345.5690,0.126378
1347.4326,0.127818
1349.2963,0.129548
1351.1600,0.131588
1353.0236,0.134136
1354.8873,0.137378
1356.7510,0.140558
1358.6146,0.143315
1360.4783,0.147110
1362.3420,0.153351
1364.2056,0.158904
1366.0693,0.161961
1367.9330,0.166491
1369.7967,0.171854
1371.6603,0.176188
1373.5240,0.182557
1375.3877,0.189970
1377.2513,0.195026
1379.1150,0.201480
1380.9787,0.209721
1382.8423,0.217943
1384.7060,0.226649
1386.5697,0.238187
1388.4333,0.251132
1390.2970,0.257224
1392.1607,0.258992
1394.0244,0.258130
1395.8880,0.250103
1397.7517,0.237257
1399.6154,0.223129
1401.4790,0.209655
1403.3427,0.197021
1405.2064,0.178456
1407.0700,0.154662
1408.9337,0.131901
1410.7974,0.111565
1412.6610,0.097821
1414.5247,0.092182
1416.3884,0.092783
1418.2520,0.099786
1420.1157,0.111388
1421.9794,0.116600
1423.8431,0.113668
1425.7067,0.102218
1427.5704,0.090004
1429.4341,0.082562
1431.2977,0.079819
1433.1614,0.080089
1435.0251,0.082499
1436.8887,0.087428
1438.7524,0.090222
1440.6161,0.091260
1442.4797,0.093339
1444.3434,0.095036
1446.2071,0.096258
1448.0707,0.096759
1449.9344,0.094712
1451.7981,0.091006
1453.6618,0.087234
1455.5254,0.086430
1457.3891,0.091297
1459.2528,0.093650
1461.1164,0.092642
1462.9801,0.093094
1464.8438,0.094243
1466.7074,0.093060
1468.5711,0.090384
1470.4348,0.089071
1472.2984,0.090161
1474.1621,0.091525
1476.0258,0.091358
1477.8895,0.091336
1479.7531,0.091565
1481.6168,0.092467
1483.4805,0.092830
1485.3441,0.093004
1487.2078,0.094317
1489.0715,0.097393
1490.9351,0.100176
1492.7988,0.099720
1494.6625,0.099838
1496.5261,0.103340
1498.3898,0.106663
1500.2535,0.107168
1502.1171,0.106295
1503.9808,0.105844
1505.8445,0.109665
1507.7082,0.118783
1509.5718,0.118170
1511.4355,0.117557
1513.2992,0.118464
1515.1628,0.119751
1517.0265,0.122238
1518.8902,0.123688
1520.7538,0.125833
1522.6175,0.129717
1524.4812,0.130147
1526.3448,0.131943
1528.2085,0.133397
1530.0722,0.133394
1531.9359,0.135067
1533.7995,0.138633
1535.6632,0.138574
1537.5269,0.137941
1539.3905,0.143108
1541.2542,0.152370
1543.1179,0.154002
1544.9815,0.155802
1546.8452,0.157011
1548.7089,0.158542
1550.5725,0.161912
1552.4362,0.164272
1554.2999,0.165897
1556.1635,0.168055
1558.0272,0.175311
1559.8909,0.191852
1561.7546,0.188085
1563.6182,0.186344
1565.4819,0.189376
1567.3456,0.192789
1569.2092,0.198262
1571.0729,0.203969
1572.9366,0.204820
1574.8002,0.209032
1576.6639,0.218817
1578.5276,0.223074
1580.3912,0.224001
1582.2549,0.227199
1584.1186,0.230183
1585.9822,0.232441
1587.8459,0.233588
1589.7096,0.234044
1591.5733,0.233590
1593.4369,0.232394
1595.3006,0.230438
1597.1643,0.227619
1599.0279,0.224237
1600.8916,0.221025
1602.7553,0.217772
1604.6189,0.214488
1606.4826,0.211677
1608.3463,0.209285
1610.2099,0.206355
1612.0736,0.202232
1613.9373,0.197100
1615.8010,0.190815
1617.6646,0.180768
1619.5283,0.171399
1621.3920,0.164402
1623.2556,0.155025
1625.1193,0.144344
1626.9830,0.134945
1628.8466,0.123226
1630.7103,0.111416
1632.5740,0.102121
1634.4376,0.092891
1636.3013,0.081802
1638.1650,0.075859
1640.0286,0.075208
1641.8923,0.074600
1643.7560,0.075229
1645.6197,0.077534
1647.4833,0.081174
1649.3470,0.083115
1651.2107,0.085742
1653.0743,0.091911
1654.9380,0.096705
1656.8017,0.096331
1658.6653,0.097130
1660.5290,0.097440
1662.3927,0.096792
1664.2563,0.094758
1666.1200,0.092628
1667.9837,0.090740
1669.8474,0.088711
1671.7110,0.087268
1673.5747,0.088252
1675.4384,0.091468
1677.3020,0.095141
1679.1657,0.098202
1681.0294,0.102715
1682.8930,0.107901
1684.7567,0.115493
1686.6204,0.117576
1688.4840,0.116072
1690.3477,0.113853
1692.2114,0.110204
1694.0750,0.106264
1695.9387,0.101441
1697.8024,0.095564
1699.6661,0.091436
1701.5297,0.082135
1703.3934,0.074391
1705.2571,0.065544
1707.1207,0.053877
1708.9844,0.046264
1710.8481,0.040886
1712.7117,0.036410
1714.5754,0.033200
1716.4391,0.030295
1718.3027,0.028459
1720.1664,0.027319
1722.0301,0.026713
1723.8937,0.024849
1725.7574,0.022287
1727.6211,0.020036
1729.4848,0.018036
1731.3484,0.016022
1733.2121,0.014751
1735.0758,0.012748
1736.9394,0.012382
1738.8031,0.012726
1740.6668,0.012216
1742.5304,0.011824
1744.3941,0.011732
1746.2578,0.011137
1748.1214,0.010798
1749.9851,0.010363
1751.8488,0.010027
1753.7125,0.010000
1755.5761,0.010486
1757.4398,0.010396
1759.3035,0.010312
1761.1671,0.010383
1763.0308,0.010226
1764.8945,0.010236
1766.7581,0.010551
1768.6218,0.010372
1770.4855,0.010258
1772.3491,0.009965
1774.2128,0.009539
1776.0765,0.009852
1777.9401,0.010413
1779.8038,0.010568
1781.6675,0.010573
1783.5312,0.010569
1785.3948,0.010652
1787.2585,0.010652
1789.1222,0.010995
1790.9858,0.010886
1792.8495,0.010439
1794.7132,0.010426
1796.5768,0.010776
1798.4405,0.010909
1800.3042,0.011059
1802.1678,0.010892
1804.0315,0.011107
1805.8952,0.011390
1807.7589,0.011452
1809.6225,0.011422
1811.4862,0.011660
1813.3499,0.011601
1815.2135,0.011549
1817.0772,0.011527
1818.9409,0.011676
1820.8045,0.011689
1822.6682,0.011742
1824.5319,0.011557
1826.3955,0.011245
1828.2592,0.011092
1830.1229,0.011217
1831.9865,0.010850
1833.8502,0.011029
1835.7139,0.011230
1837.5776,0.011408
1839.4412,0.011278
1841.3049,0.011459
1843.1686,0.011427
1845.0322,0.011135
1846.8959,0.011016
1848.7596,0.011246
1850.6232,0.011427
1852.4869,0.011912
1854.3506,0.011957
1856.2142,0.011984
1858.0779,0.012017
1859.9416,0.012111
1861.8052,0.012128
1863.6689,0.012068
1865.5326,0.011626
1867.3963,0.011719
1869.2599,0.011618
1871.1236,0.011628
1872.9873,0.012009
1874.8509,0.012310
1876.7146,0.012098
1878.5783,0.012067
1880.4419,0.012173
1882.3056,0.012402
1884.1693,0.012132
1886.0329,0.012088
1887.8966,0.012000
1889.7603,0.011935
1891.6240,0.011514
1893.4876,0.011614
1895.3513,0.012038
1897.2150,0.012398
1899.0786,0.012347
1900.9423,0.012411
1902.8060,0.012480
1904.6696,0.012573
1906.5333,0.012354
1908.3970,0.012462
1910.2606,0.012049
1912.1243,0.011549
1913.9880,0.011797
1915.8516,0.012406
1917.7153,0.012410
1919.5790,0.012061
1921.4427,0.011445
1923.3063,0.011573
1925.1700,0.011466
1927.0337,0.011804
1928.8973,0.011887
1930.7610,0.012552
1932.6247,0.012682
1934.4883,0.012055
1936.3520,0.011251
1938.2157,0.011896
1940.0793,0.012158
1941.9430,0.011674
1943.8067,0.011186
1945.6704,0.010743
1947.5340,0.010362
1949.3977,0.011071
1951.2614,0.011063
1953.1250,0.010607
1954.9887,0.009995
1956.8524,0.010213
1958.7160,0.010318
1960.5797,0.009653
1962.4434,0.007646
1964.3070,0.005649
1966.1707,0.004320
1968.0344,0.003819
1969.8980,0.003223
1971.7617,0.004086
1973.6254,0.005109
1975.4891,0.005964
1977.3527,0.005483
1979.2164,0.006807
1981.0801,0.008133
1982.9437,0.008443
1984.8074,0.007665
1986.6711,0.007941
1988.5347,0.008384
1990.3984,0.009863
1992.2621,0.010352
1994.1257,0.009686
1995.9894,0.009136
1997.8531,0.008789
1999.7167,0.008031
2001.5804,0.008428
2003.4441,0.008848
2005.3078,0.009003
2007.1714,0.007651
2009.0351,0.007308
2010.8988,0.007231
2012.7624,0.007430
2014.6261,0.007214
2016.4898,0.007464
2018.3534,0.006477
2020.2171,0.005328
2022.0808,0.004850
2023.9444,0.005365
2025.8081,0.005855
2027.6718,0.008018
2029.5355,0.008187
2031.3991,0.007348
2033.2628,0.007494
2035.1265,0.008542
2036.9901,0.007661
2038.8538,0.007843
2040.7175,0.008155
2042.5811,0.008241
2044.4448,0.009229
2046.3085,0.011087
2048.1721,0.011538
2050.0358,0.011787
2051.8995,0.011784
2053.7631,0.012198
2055.6268,0.012398
2057.4905,0.012679
2059.3542,0.012219
2061.2178,0.013064
2063.0815,0.013959
2064.9452,0.013770
2066.8088,0.012913
2068.6725,0.013501
2070.5362,0.014416
2072.3998,0.014553
2074.2635,0.014634
2076.1272,0.015121
2077.9908,0.015542
2079.8545,0.016004
2081.7182,0.016136
2083.5819,0.016651
2085.4455,0.016449
2087.3092,0.016520
2089.1729,0.016778
2091.0365,0.016801
2092.9002,0.016395
2094.7639,0.015999
2096.6275,0.015904
2098.4912,0.015875
2100.3549,0.016029
2102.2185,0.016108
2104.0822,0.016161
2105.9459,0.016830
2107.8095,0.017138
2109.6732,0.017243
2111.5369,0.017229
2113.4006,0.017366
2115.2642,0.017365
2117.1279,0.017846
2118.9916,0.017202
2120.8552,0.016864
2122.7189,0.017434
2124.5826,0.017539
2126.4462,0.016998
2128.3099,0.016778
2130.1736,0.016521
2132.0372,0.016064
2133.9009,0.015135
2135.7646,0.015899
2137.6282,0.015784
2139.4919,0.015276
2141.3556,0.015135
2143.2193,0.014501
2145.0829,0.013068
2146.9466,0.013150
2148.8103,0.012387
2150.6739,0.012068
2152.5376,0.011534
2154.4013,0.010557
2156.2649,0.008481
2158.1286,0.006686
2159.9923,0.006978
2161.8559,0.007565
2163.7196,0.006446
2165.5833,0.007977
2167.4470,0.009483
2169.3106,0.010552
2171.1743,0.011299
2173.0380,0.011565
2174.9016,0.011367
2176.7653,0.011851
2178.6290,0.012117
2180.4926,0.012566
2182.3563,0.012205
2184.2200,0.012569
2186.0836,0.012621
2187.9473,0.013175
2189.8110,0.013692
2191.6746,0.013874
2193.5383,0.014651
2195.4020,0.015337
2197.2657,0.016189
2199.1293,0.016039
2200.9930,0.015395
2202.8567,0.015526
2204.7203,0.015741
2206.5840,0.015968
2208.4477,0.016110
2210.3113,0.017244
2212.1750,0.017496
2214.0387,0.017020
2215.9023,0.016318
2217.7660,0.016366
2219.6297,0.016311
2221.4934,0.016780
2223.3570,0.018084
2225.2207,0.018233
2227.0844,0.017957
2228.9480,0.018529
2230.8117,0.018379
2232.6754,0.017946
2234.5390,0.018354
2236.4027,0.018671
2238.2664,0.019119
2240.1300,0.019364
2241.9937,0.018888
2243.8574,0.019343
2245.7210,0.019802
2247.5847,0.020142
2249.4484,0.020694
2251.3121,0.021408
2253.1757,0.021629
2255.0394,0.021415
2256.9031,0.021256
2258.7667,0.021777
2260.6304,0.022270
2262.4941,0.022534
2264.3577,0.022234
2266.2214,0.022018
2268.0851,0.022131
2269.9487,0.022664
2271.8124,0.022980
2273.6761,0.023404
2275.5397,0.023717
2277.4034,0.024091
2279.2671,0.024526
2281.1308,0.024800
2282.9944,0.025450
2284.8581,0.026045
2286.7218,0.026303
2288.5854,0.026331
2290.4491,0.025959
2292.3128,0.026013
2294.1764,0.026263
2296.0401,0.026301
2297.9038,0.026252
2299.7674,0.026204
2301.6311,0.026031
2303.4948,0.026520
2305.3585,0.026796
2307.2221,0.026814
2309.0858,0.026722
2310.9495,0.026815
2312.8131,0.027078
2314.6768,0.026996
2316.5405,0.026736
2318.4041,0.027097
2320.2678,0.027575
2322.1315,0.027814
2323.9951,0.027488
2325.8588,0.027136
2327.7225,0.026932
2329.5861,0.026638
2331.4498,0.026551
2333.3135,0.026738
2335.1772,0.026697
2337.0408,0.026821
2338.9045,0.026805
2340.7682,0.026979
2342.6318,0.027234
2344.4955,0.027064
2346.3592,0.027119
2348.2228,0.026590
2350.0865,0.025660
2351.9502,0.025830
2353.8138,0.026729
2355.6775,0.026918
2357.5412,0.026731
2359.4049,0.027075
2361.2685,0.027181
2363.1322,0.027021
2364.9959,0.027154
2366.8595,0.027291
2368.7232,0.027017
2370.5869,0.027129
2372.4505,0.027540
2374.3142,0.027750
2376.1779,0.027497
2378.0415,0.027319
2379.9052,0.027116
2381.7689,0.026917
2383.6325,0.026672
2385.4962,0.026618
2387.3599,0.026784
2389.2236,0.026593
2391.0872,0.026525
2392.9509,0.026871
2394.8146,0.027032
2396.6782,0.026644
2398.5419,0.026381
2400.4056,0.026659
2402.2692,0.027135
2404.1329,0.027268
2405.9966,0.027036
2407.8602,0.027226
2409.7239,0.027234
2411.5876,0.027376
2413.4512,0.027595
2415.3149,0.027672
2417.1786,0.027879
2419.0423,0.027977
2420.9059,0.028015
2422.7696,0.028060
2424.6333,0.028457
2426.4969,0.028591
2428.3606,0.028146
2430.2243,0.027911
2432.0879,0.027851
2433.9516,0.028203
2435.8153,0.028078
2437.6789,0.028030
2439.5426,0.028432
2441.4063,0.028671
2443.2700,0.028730
2445.1336,0.028754
2446.9973,0.028590
2448.8610,0.028512
2450.7246,0.028238
2452.5883,0.028133
2454.4520,0.028255
2456.3156,0.028093
2458.1793,0.028189
2460.0430,0.028326
2461.9066,0.027952
2463.7703,0.027896
2465.6340,0.028168
2467.4976,0.028007
2469.3613,0.028028
2471.2250,0.027958
2473.0887,0.027824
2474.9523,0.028400
2476.8160,0.028509
2478.6797,0.028291
2480.5433,0.028179
2482.4070,0.028340
2484.2707,0.028659
2486.1343,0.028930
2487.9980,0.028958
2489.8617,0.028927
2491.7253,0.028931
2493.5890,0.029135
2495.4527,0.029188
2497.3164,0.029173
2499.1800,0.029337
2501.0437,0.029599
2502.9074,0.029731
2504.7710,0.030086
2506.6347,0.030037
2508.4984,0.029836
2510.3620,0.030010
2512.2257,0.030105
2514.0894,0.030148
2515.9530,0.030299
2517.8167,0.030198
2519.6804,0.030114
2521.5440,0.030549
2523.4077,0.030686
2525.2714,0.030812
2527.1351,0.031289
