Wavenumber,Intensity
650.4205,0.199897
652.2841,0.190797
654.1478,0.185291
656.0115,0.181869
657.8751,0.179321
659.7388,0.176008
661.6025,0.173426
663.4661,0.168655
665.3298,0.164357
667.1935,0.164147
669.0571,0.166569
670.9208,0.165769
672.7845,0.166707
674.6481,0.166620
676.5118,0.166166
678.3755,0.166197
680.2392,0.167031
682.1028,0.167011
683.9665,0.167817
685.8302,0.168013
687.6938,0.167508
689.5575,0.167465
691.4212,0.167237
693.2848,0.167004
695.1485,0.168535
697.0122,0.169723
698.8758,0.170661
700.7395,0.170624
702.6032,0.170641
704.4669,0.169029
706.3305,0.163912
708.1942,0.157076
710.0579,0.149802
711.9215,0.141150
713.7852,0.133872
715.6489,0.127248
717.5125,0.121021
719.3762,0.115762
721.2399,0.111311
723.1035,0.106946
724.9672,0.102828
726.8309,0.098589
728.6945,0.094580
730.5582,0.091385
732.4219,0.088085
734.2856,0.084259
736.1492,0.081822
738.0129,0.080504
739.8766,0.080474
741.7402,0.082213
743.6039,0.084345
745.4676,0.085396
747.3312,0.085599
749.1949,0.085158
751.0586,0.084334
752.9222,0.083316
754.7859,0.082300
756.6496,0.081012
758.5132,0.079848
760.3769,0.079080
762.2406,0.078844
764.1043,0.078609
765.9679,0.078398
767.8316,0.078414
769.6953,0.078423
771.5589,0.078249
773.4226,0.078383
775.2863,0.078996
777.1499,0.079721
779.0136,0.080534
780.8773,0.081692
782.7409,0.083000
784.6046,0.084172
786.4683,0.085528
788.3320,0.087229
790.1956,0.088900
792.0593,0.090596
793.9230,0.092168
795.7866,0.094150
797.6503,0.096386
799.5140,0.097812
801.3776,0.098544
803.2413,0.098891
805.1050,0.098386
806.9686,0.097027
808.8323,0.095104
810.6960,0.092848
812.5596,0.090081
814.4233,0.087177
816.2870,0.084195
818.1507,0.081328
820.0143,0.078820
821.8780,0.076934
823.7417,0.075717
825.6053,0.075713
827.4690,0.077210
829.3327,0.077968
831.1963,0.072946
833.0600,0.062640
834.9237,0.053973
836.7873,0.050096
838.6510,0.048868
840.5147,0.048297
842.3784,0.047748
844.2420,0.047242
846.1057,0.046937
847.9694,0.046718
849.8330,0.046410
851.6967,0.046212
853.5604,0.046344
855.4240,0.046345
857.2877,0.046217
859.1514,0.046180
861.0150,0.046069
862.8787,0.046091
864.7424,0.046206
866.6060,0.046295
868.4697,0.046482
870.3334,0.046452
872.1971,0.046413
874.0607,0.046656
875.9244,0.046824
877.7881,0.046902
879.6517,0.047123
881.5154,0.047358
883.3791,0.047656
885.2427,0.048168
887.1064,0.048570
888.9701,0.048917
890.8337,0.049394
892.6974,0.049961
894.5611,0.050482
896.4247,0.051073
898.2884,0.052018
900.1521,0.053318
902.0158,0.055067
903.8794,0.057341
905.7431,0.060272
907.6068,0.064139
909.4704,0.068710
911.3341,0.074269
913.1978,0.080812
915.0614,0.083818
916.9251,0.076520
918.7888,0.062519
920.6524,0.052079
922.5161,0.047777
924.3798,0.046528
926.2435,0.046278
928.1071,0.046478
929.9708,0.046966
931.8345,0.047515
933.6981,0.048087
935.5618,0.048802
937.4255,0.049439
939.2891,0.049973
941.1528,0.050562
943.0165,0.051129
944.8801,0.051820
946.7438,0.052637
948.6075,0.053334
950.4711,0.054099
952.3348,0.055016
954.1985,0.055942
956.0622,0.056957
957.9258,0.058032
959.7895,0.059010
961.6532,0.059982
963.5168,0.061162
965.3805,0.062579
967.2442,0.064375
969.1078,0.066704
970.9715,0.069213
972.8352,0.072137
974.6988,0.076821
976.5625,0.085007
978.4262,0.099283
980.2899,0.119479
982.1535,0.127539
984.0172,0.104618
985.8809,0.074362
987.7445,0.060770
989.6082,0.058706
991.4719,0.059226
993.3355,0.060239
995.1992,0.061303
997.0629,0.062345
998.9265,0.063359
1000.7902,0.064251
1002.6539,0.065160
1004.5175,0.066129
1006.3812,0.067183
1008.2449,0.068231
1010.1086,0.069152
1011.9722,0.070020
1013.8359,0.070859
1015.6996,0.071631
1017.5632,0.072444
1019.4269,0.073214
1021.2906,0.073944
1023.1542,0.074830
1025.0179,0.075826
1026.8816,0.076795
1028.7452,0.077921
1030.6089,0.079280
1032.4726,0.080646
1034.3362,0.082062
1036.1999,0.083873
1038.0636,0.086035
1039.9273,0.088548
1041.7909,0.091632
1043.6546,0.095194
1045.5183,0.098823
1047.3819,0.101682
1049.2456,0.101902
1051.1093,0.097450
1052.9729,0.089340
1054.8366,0.081417
1056.7003,0.076260
1058.5639,0.073804
1060.4276,0.073042
1062.2913,0.073129
1064.1550,0.073597
1066.0186,0.074380
1067.8823,0.075417
1069.7460,0.076679
1071.6096,0.077989
1073.4733,0.079271
1075.3370,0.080681
1077.2006,0.082242
1079.0643,0.083912
1080.9280,0.085734
1082.7916,0.087848
1084.6553,0.090269
1086.5190,0.092948
1088.3826,0.095889
1090.2463,0.099270
1092.1100,0.103097
1093.9737,0.107320
1095.8373,0.112112
1097.7010,0.117413
1099.5647,0.123264
1101.4283,0.129484
1103.2920,0.135166
1105.1557,0.139152
1107.0193,0.139912
1108.8830,0.136251
1110.7467,0.127965
1112.6103,0.116530
1114.4740,0.104419
1116.3377,0.093426
1118.2014,0.084409
1120.0650,0.077789
1121.9287,0.073357
1123.7924,0.070406
1125.6560,0.068164
1127.5197,0.066104
1129.3834,0.064018
1131.2470,0.062011
1133.1107,0.060448
1134.9744,0.059267
1136.8380,0.058339
1138.7017,0.057757
1140.5654,0.057521
1142.4290,0.057536
1144.2927,0.057654
1146.1564,0.057819
1148.0201,0.058147
1149.8837,0.058631
1151.7474,0.059174
1153.6111,0.059680
1155.4747,0.060313
1157.3384,0.061175
1159.2021,0.062098
1161.0657,0.063263
1162.9294,0.064780
1164.7931,0.066712
1166.6567,0.069293
1168.5204,0.072446
1170.3841,0.075723
1172.2477,0.078019
1174.1114,0.077568
1175.9751,0.073809
1177.8388,0.068629
1179.7024,0.064304
1181.5661,0.061699
1183.4298,0.060561
1185.2934,0.060285
1187.1571,0.060378
1189.0208,0.060515
1190.8844,0.060430
1192.7481,0.060256
1194.6118,0.060234
1196.4754,0.060317
1198.3391,0.060489
1200.2028,0.060688
1202.0665,0.060841
1203.9301,0.061091
1205.7938,0.061456
1207.6575,0.061754
1209.5211,0.062100
1211.3848,0.062671
1213.2485,0.063243
1215.1121,0.063653
1216.9758,0.064125
1218.8395,0.064737
1220.7031,0.065363
1222.5668,0.065920
1224.4305,0.066407
1226.2941,0.066966
1228.1578,0.067586
1230.0215,0.068161
1231.8852,0.068688
1233.7488,0.069238
1235.6125,0.069885
1237.4762,0.070527
1239.3398,0.071036
1241.2035,0.071519
1243.0672,0.072125
1244.9308,0.072731
1246.7945,0.073255
1248.6582,0.073884
1250.5218,0.074564
1252.3855,0.075081
1254.2492,0.075662
1256.1129,0.076471
1257.9765,0.077311
1259.8402,0.078159
1261.7039,0.079138
1263.5675,0.080111
1265.4312,0.080875
1267.2949,0.081395
1269.1585,0.081605
1271.0222,0.081512
1272.8859,0.081445
1274.7495,0.081781
1276.6132,0.082407
1278.4769,0.083145
1280.3405,0.084220
1282.2042,0.085612
1284.0679,0.087190
1285.9316,0.089009
1287.7952,0.091180
1289.6589,0.093658
1291.5226,0.096412
1293.3862,0.099679
1295.2499,0.103651
1297.1136,0.108422
1298.9772,0.114176
1300.8409,0.121218
1302.7046,0.128828
1304.5682,0.134517
1306.4319,0.134370
1308.2956,0.124305
1310.1592,0.105303
1312.0229,0.085597
1313.8866,0.072572
1315.7503,0.067495
1317.6139,0.067252
1319.4776,0.069020
1321.3413,0.071168
1323.2049,0.073412
1325.0686,0.075853
1326.9323,0.078310
1328.7959,0.080797
1330.6596,0.083156
1332.5233,0.084958
1334.3869,0.086027
1336.2506,0.086886
1338.1143,0.088433
1339.9780,0.090424
1341.8416,0.091087
1343.7053,0.091048
1345.5690,0.091710
1347.4326,0.092786
1349.2963,0.094093
1351.1600,0.095608
1353.0236,0.097399
1354.8873,0.099675
1356.7510,0.101930
1358.6146,0.103879
1360.4783,0.106655
1362.3420,0.111249
1364.2056,0.115318
1366.0693,0.117458
1367.9330,0.120490
1369.7967,0.124077
1371.6603,0.127050
1373.5240,0.131406
1375.3877,0.136331
1377.2513,0.139403
1379.1150,0.143451
1380.9787,0.148917
1382.8423,0.154476
1384.7060,0.160554
1386.5697,0.168664
1388.4333,0.177528
1390.2970,0.182175
1392.1607,0.184820
1394.0244,0.186162
1395.8880,0.181932
1397.7517,0.173563
1399.6154,0.163897
1401.4790,0.153876
1403.3427,0.144562
1405.2064,0.131360
1407.0700,0.113805
1408.9337,0.096977
1410.7974,0.082159
1412.6610,0.071659
1414.5247,0.066659
1416.3884,0.066347
1418.2520,0.070885
1420.1157,0.078825
1421.9794,0.082851
1423.8431,0.081505
1425.7067,0.073854
1427.5704,0.065056
1429.4341,0.059695
1431.2977,0.057531
1433.1614,0.057172
1435.0251,0.058492
1436.8887,0.062014
1438.7524,0.063933
1440.6161,0.064352
1442.4797,0.065714
1444.3434,0.067055
1446.2071,0.068121
1448.0707,0.068662
1449.9344,0.067155
1451.7981,0.064281
1453.6618,0.061429
1455.5254,0.060916
1457.3891,0.064733
1459.2528,0.066175
1461.1164,0.064923
1462.9801,0.065024
1464.8438,0.066024
1466.7074,0.065302
1468.5711,0.063240
1470.4348,0.062349
1472.2984,0.063468
1474.1621,0.064513
1476.0258,0.064055
1477.8895,0.063771
1479.7531,0.063570
1481.6168,0.064026
1483.4805,0.064158
1485.3441,0.064089
1487.2078,0.065067
1489.0715,0.067456
1490.9351,0.069224
1492.7988,0.068565
1494.6625,0.068344
1496.5261,0.070783
1498.3898,0.073114
1500.2535,0.073218
1502.1171,0.072468
1503.9808,0.072263
1505.8445,0.075439
1507.7082,0.082501
1509.5718,0.081615
1511.4355,0.080600
1513.2992,0.080970
1515.1628,0.081937
1517.0265,0.083941
1518.8902,0.085171
1520.7538,0.086888
1522.6175,0.090042
1524.4812,0.090136
1526.3448,0.091135
1528.2085,0.092013
1530.0722,0.091841
1531.9359,0.093154
1533.7995,0.096300
1535.6632,0.096277
1537.5269,0.095564
1539.3905,0.100045
1541.2542,0.107350
1543.1179,0.107897
1544.9815,0.108803
1546.8452,0.109527
1548.7089,0.110712
1550.5725,0.113371
1552.4362,0.115062
1554.2999,0.116444
1556.1635,0.118919
1558.0272,0.125209
1559.8909,0.137268
1561.7546,0.133331
1563.6182,0.131739
1565.4819,0.134135
1567.3456,0.136923
1569.2092,0.141174
1571.0729,0.145439
1572.9366,0.145944
1574.8002,0.149435
1576.6639,0.157037
1578.5276,0.159730
1580.3912,0.160159
1582.2549,0.162780
1584.1186,0.165258
1585.9822,0.167315
1587.8459,0.168709
1589.7096,0.169413
1591.5733,0.169224
1593.4369,0.168668
1595.3006,0.167491
1597.1643,0.165542
1599.0279,0.163019
1600.8916,0.160490
1602.7553,0.158019
1604.6189,0.155647
1606.4826,0.153552
1608.3463,0.151582
1610.2099,0.149214
1612.0736,0.146027
1613.9373,0.142556
1615.8010,0.139367
1617.6646,0.133025
1619.5283,0.124900
1621.3920,0.119367
1623.2556,0.113217
1625.1193,0.105490
1626.9830,0.098163
1628.8466,0.089395
1630.7103,0.080213
1632.5740,0.073212
1634.4376,0.067220
1636.3013,0.060565
1638.1650,0.055196
1640.0286,0.053230
1641.8923,0.052140
1643.7560,0.052177
1645.6197,0.053753
1647.4833,0.056565
1649.3470,0.057753
1651.2107,0.059544
1653.0743,0.065109
1654.9380,0.069296
1656.8017,0.068002
1658.6653,0.068364
1660.5290,0.068995
1662.3927,0.069151
1664.2563,0.067901
1666.1200,0.066105
1667.9837,0.065095
1669.8474,0.064374
1671.7110,0.063092
1673.5747,0.063133
1675.4384,0.065033
1677.3020,0.067509
1679.1657,0.069532
1681.0294,0.073157
1682.8930,0.077745
1684.7567,0.083663
1686.6204,0.084845
1688.4840,0.083870
1690.3477,0.082844
1692.2114,0.080796
1694.0750,0.078656
1695.9387,0.076356
1697.8024,0.072570
1699.6661,0.069915
1701.5297,0.063902
1703.3934,0.057600
1705.2571,0.051299
1707.1207,0.043129
1708.9844,0.037075
1710.8481,0.032683
1712.7117,0.029298
1714.5754,0.027326
1716.4391,0.025837
1718.3027,0.024988
1720.1664,0.023681
1722.0301,0.022525
1723.8937,0.020950
1725.7574,0.019106
1727.6211,0.017421
1729.4848,0.015916
1731.3484,0.014547
1733.2121,0.013784
1735.0758,0.012853
1736.9394,0.012119
1738.8031,0.011745
1740.6668,0.011381
1742.5304,0.010832
1744.3941,0.010614
1746.2578,0.010358
1748.1214,0.010163
1749.9851,0.009831
1751.8488,0.009571
1753.7125,0.009220
1755.5761,0.009210
1757.4398,0.009097
1759.3035,0.008943
1761.1671,0.008917
1763.0308,0.008939
1764.8945,0.008797
1766.7581,0.008860
1768.6218,0.008715
1770.4855,0.008622
1772.3491,0.008719
1774.2128,0.008752
1776.0765,0.008539
1777.9401,0.008671
1779.8038,0.008711
1781.6675,0.008788
1783.5312,0.008832
1785.3948,0.008916
1787.2585,0.008910
1789.1222,0.009149
1790.9858,0.009313
1792.8495,0.009378
1794.7132,0.009175
1796.5768,0.009010
1798.4405,0.008958
1800.3042,0.009261
1802.1678,0.009285
1804.0315,0.009335
1805.8952,0.009435
1807.7589,0.009555
1809.6225,0.009613
1811.4862,0.009615
1813.3499,0.009499
1815.2135,0.009574
1817.0772,0.009559
1818.9409,0.009567
1820.8045,0.009433
1822.6682,0.009566
1824.5319,0.009648
1826.3955,0.009524
1828.2592,0.009362
1830.1229,0.009333
1831.9865,0.009014
1833.8502,0.009213
1835.7139,0.009391
1837.5776,0.009367
1839.4412,0.009281
1841.3049,0.009441
1843.1686,0.009694
1845.0322,0.009726
1846.8959,0.009342
1848.7596,0.009712
1850.6232,0.009721
1852.4869,0.009656
1854.3506,0.009700
1856.2142,0.009752
1858.0779,0.009763
1859.9416,0.009688
1861.8052,0.009527
1863.6689,0.009506
1865.5326,0.009747
1867.3963,0.010279
1869.2599,0.010139
1871.1236,0.009663
1872.9873,0.009729
1874.8509,0.010001
1876.7146,0.009773
1878.5783,0.009665
1880.4419,0.009982
1882.3056,0.010220
1884.1693,0.010053
1886.0329,0.010114
1887.8966,0.009954
1889.7603,0.009976
1891.6240,0.010059
1893.4876,0.010064
1895.3513,0.010005
1897.2150,0.009870
1899.0786,0.009807
1900.9423,0.010173
1902.8060,0.010299
1904.6696,0.010231
1906.5333,0.009871
1908.3970,0.010069
1910.2606,0.010306
1912.1243,0.010279
1913.9880,0.010250
1915.8516,0.010632
1917.7153,0.010348
1919.5790,0.009662
1921.4427,0.009406
1923.3063,0.009669
1925.1700,0.009455
1927.0337,0.009657
1928.8973,0.009951
1930.7610,0.010234
1932.6247,0.009629
1934.4883,0.009496
1936.3520,0.009228
1938.2157,0.009060
1940.0793,0.008604
1941.9430,0.008745
1943.8067,0.009315
1945.6704,0.009594
1947.5340,0.008425
1949.3977,0.008676
1951.2614,0.009261
1953.1250,0.008955
1954.9887,0.008619
1956.8524,0.009027
1958.7160,0.008712
1960.5797,0.007924
1962.4434,0.006811
1964.3070,0.006303
1966.1707,0.005034
1968.0344,0.003779
1969.8980,0.003959
1971.7617,0.005802
1973.6254,0.005300
1975.4891,0.004672
1977.3527,0.005429
1979.2164,0.006223
1981.0801,0.006024
1982.9437,0.006557
1984.8074,0.006202
1986.6711,0.006912
1988.5347,0.008034
1990.3984,0.007791
1992.2621,0.007085
1994.1257,0.007253
1995.9894,0.007170
1997.8531,0.008196
1999.7167,0.009076
2001.5804,0.008799
2003.4441,0.007332
2005.3078,0.006832
2007.1714,0.006647
2009.0351,0.007651
2010.8988,0.007476
2012.7624,0.006743
2014.6261,0.005679
2016.4898,0.005608
2018.3534,0.006294
2020.2171,0.005449
2022.0808,0.004018
2023.9444,0.005849
2025.8081,0.006448
2027.6718,0.005484
2029.5355,0.005265
2031.3991,0.005891
2033.2628,0.006380
2035.1265,0.007714
2036.9901,0.006821
2038.8538,0.006166
2040.7175,0.006830
2042.5811,0.007968
2044.4448,0.007806
2046.3085,0.008502
2048.1721,0.008940
2050.0358,0.009552
2051.8995,0.009912
2053.7631,0.009553
2055.6268,0.009982
2057.4905,0.010769
2059.3542,0.010880
2061.2178,0.011537
2063.0815,0.011347
2064.9452,0.011428
2066.8088,0.011391
2068.6725,0.011711
2070.5362,0.011897
2072.3998,0.011600
2074.2635,0.012005
2076.1272,0.012521
2077.9908,0.011936
2079.8545,0.011670
2081.7182,0.012326
2083.5819,0.012902
2085.4455,0.012910
2087.3092,0.013045
2089.1729,0.013214
2091.0365,0.013354
2092.9002,0.012909
2094.7639,0.013105
2096.6275,0.013270
2098.4912,0.013077
2100.3549,0.013227
2102.2185,0.013316
2104.0822,0.012986
2105.9459,0.012633
2107.8095,0.012407
2109.6732,0.013262
2111.5369,0.013620
2113.4006,0.013890
2115.2642,0.014185
2117.1279,0.014176
2118.9916,0.014058
2120.8552,0.013909
2122.7189,0.014187
2124.5826,0.013930
2126.4462,0.012785
2128.3099,0.012730
2130.1736,0.013066
2132.0372,0.013098
2133.9009,0.012951
2135.7646,0.012556
2137.6282,0.012111
2139.4919,0.012937
2141.3556,0.012560
2143.2193,0.012209
2145.0829,0.011388
2146.9466,0.010814
2148.8103,0.009564
2150.6739,0.008837
2152.5376,0.008603
2154.4013,0.007216
2156.2649,0.006056
2158.1286,0.006023
2159.9923,0.005331
2161.8559,0.006361
2163.7196,0.007451
2165.5833,0.008477
2167.4470,0.009760
2169.3106,0.009584
2171.1743,0.009168
2173.0380,0.010908
2174.9016,0.011396
2176.7653,0.010076
2178.6290,0.009284
2180.4926,0.010207
2182.3563,0.010747
2184.2200,0.011352
2186.0836,0.011620
2187.9473,0.010919
2189.8110,0.010482
2191.6746,0.010802
2193.5383,0.011358
2195.4020,0.012244
2197.2657,0.012252
2199.1293,0.012767
2200.9930,0.013188
2202.8567,0.012872
2204.7203,0.012264
2206.5840,0.013037
2208.4477,0.013347
2210.3113,0.013101
2212.1750,0.013172
2214.0387,0.013581
2215.9023,0.013284
2217.7660,0.013481
2219.6297,0.013042
2221.4934,0.013497
2223.3570,0.014399
2225.2207,0.014657
2227.0844,0.014492
2228.9480,0.014261
2230.8117,0.014440
2232.6754,0.015005
2234.5390,0.014979
2236.4027,0.015523
2238.2664,0.015657
2240.1300,0.015015
2241.9937,0.014509
2243.8574,0.014937
2245.7210,0.015653
2247.5847,0.016047
2249.4484,0.016207
2251.3121,0.016263
2253.1757,0.016006
2255.0394,0.016181
2256.9031,0.016644
2258.7667,0.016519
2260.6304,0.016622
2262.4941,0.016797
2264.3577,0.017014
2266.2214,0.016977
2268.0851,0.017248
2269.9487,0.018102
2271.8124,0.018468
2273.6761,0.018767
2275.5397,0.018900
2277.4034,0.018968
2279.2671,0.018738
2281.1308,0.018774
2282.9944,0.019388
2284.8581,0.019786
2286.7218,0.019449
2288.5854,0.019228
2290.4491,0.019445
2292.3128,0.019499
2294.1764,0.019561
2296.0401,0.019667
2297.9038,0.019574
2299.7674,0.019493
2301.6311,0.019740
2303.4948,0.020009
2305.3585,0.020074
2307.2221,0.020050
2309.0858,0.020175
2310.9495,0.020231
2312.8131,0.020142
2314.6768,0.020207
2316.5405,0.020165
2318.4041,0.020162
2320.2678,0.020408
2322.1315,0.020632
2323.9951,0.020440
2325.8588,0.019838
2327.7225,0.019249
2329.5861,0.019494
2331.4498,0.019674
2333.3135,0.019091
2335.1772,0.018551
2337.0408,0.018655
2338.9045,0.019099
2340.7682,0.019472
2342.6318,0.019656
2344.4955,0.019843
2346.3592,0.019514
2348.2228,0.019128
2350.0865,0.018878
2351.9502,0.018789
2353.8138,0.018659
2355.6775,0.018953
2357.5412,0.019138
2359.4049,0.019035
2361.2685,0.018977
2363.1322,0.019306
2364.9959,0.019451
2366.8595,0.018769
2368.7232,0.018727
2370.5869,0.019264
2372.4505,0.019711
2374.3142,0.020159
2376.1779,0.020205
2378.0415,0.019883
2379.9052,0.020021
2381.7689,0.020430
2383.6325,0.020480
2385.4962,0.020115
2387.3599,0.019800
2389.2236,0.020064
2391.0872,0.020202
2392.9509,0.020066
2394.8146,0.020011
2396.6782,0.020499
2398.5419,0.020592
2400.4056,0.020381
2402.2692,0.020342
2404.1329,0.020515
2405.9966,0.020461
2407.8602,0.020521
2409.7239,0.020738
2411.5876,0.020774
2413.4512,0.020608
2415.3149,0.020611
2417.1786,0.020912
2419.0423,0.021125
2420.9059,0.020932
2422.7696,0.021112
2424.6333,0.021535
2426.4969,0.021401
2428.3606,0.021225
2430.2243,0.021416
2432.0879,0.021509
2433.9516,0.021362
2435.8153,0.021438
2437.6789,0.021497
2439.5426,0.021475
2441.4063,0.021234
2443.2700,0.021085
2445.1336,0.021445
2446.9973,0.021476
2448.8610,0.021098
2450.7246,0.020919
2452.5883,0.021120
2454.4520,0.021397
2456.3156,0.021281
2458.1793,0.021299
2460.0430,0.021402
2461.9066,0.021227
2463.7703,0.021117
2465.6340,0.021291
2467.4976,0.020984
2469.3613,0.020744
2471.2250,0.021038
2473.0887,0.021501
2474.9523,0.021331
2476.8160,0.020968
2478.6797,0.020977
2480.5433,0.020865
2482.4070,0.021067
2484.2707,0.021495
2486.1343,0.021767
2487.9980,0.022017
2489.8617,0.022162
2491.7253,0.022231
2493.5890,0.022276
2495.4527,0.022243
2497.3164,0.022155
2499.1800,0.021919
2501.0437,0.021907
2502.9074,0.022131
2504.7710,0.022380
2506.6347,0.022563
2508.4984,0.022482
2510.3620,0.022249
2512.2257,0.022255
2514.0894,0.022702
2515.9530,0.022967
2517.8167,0.022681
2519.6804,0.022664
2521.5440,0.023068
2523.4077,0.023173
2525.2714,0.022946
2527.1351,0.023040
