Wavenumber,Intensity
650.4205,0.137285
652.2841,0.135091
654.1478,0.132343
656.0115,0.129943
657.8751,0.129015
659.7388,0.126138
661.6025,0.124396
663.4661,0.122234
665.3298,0.120608
667.1935,0.121291
669.0571,0.120556
670.9208,0.118545
672.7845,0.118703
674.6481,0.119664
676.5118,0.120740
678.3755,0.120254
680.2392,0.119653
682.1028,0.120091
683.9665,0.120420
685.8302,0.120082
687.6938,0.120294
689.5575,0.120337
691.4212,0.119625
693.2848,0.119449
695.1485,0.121280
697.0122,0.122817
698.8758,0.123353
700.7395,0.123185
702.6032,0.122057
704.4669,0.120071
706.3305,0.117596
708.1942,0.113510
710.0579,0.108487
711.9215,0.103075
713.7852,0.099193
715.6489,0.095512
717.5125,0.091050
719.3762,0.087600
721.2399,0.084779
723.1035,0.081319
724.9672,0.077842
726.8309,0.075089
728.6945,0.072769
730.5582,0.070041
732.4219,0.067719
734.2856,0.065614
736.1492,0.063474
738.0129,0.062155
739.8766,0.062125
741.7402,0.063285
743.6039,0.065106
745.4676,0.066344
747.3312,0.066385
749.1949,0.065395
751.0586,0.064514
752.9222,0.064367
754.7859,0.064001
756.6496,0.063011
758.5132,0.062107
760.3769,0.061501
762.2406,0.061313
764.1043,0.061175
765.9679,0.060958
767.8316,0.060775
769.6953,0.060727
771.5589,0.060990
773.4226,0.061241
775.2863,0.061356
777.1499,0.061434
779.0136,0.062226
780.8773,0.063454
782.7409,0.064169
784.6046,0.065025
786.4683,0.066082
788.3320,0.067377
790.1956,0.068831
792.0593,0.070158
793.9230,0.071353
795.7866,0.072308
797.6503,0.073347
799.5140,0.074091
801.3776,0.074491
803.2413,0.074926
805.1050,0.075049
806.9686,0.074256
808.8323,0.072815
810.6960,0.070901
812.5596,0.068477
814.4233,0.066519
816.2870,0.065090
818.1507,0.063228
820.0143,0.061117
821.8780,0.059561
823.7417,0.058852
825.6053,0.058981
827.4690,0.059842
829.3327,0.060306
831.1963,0.056983
833.0600,0.049369
834.9237,0.042496
836.7873,0.039280
838.6510,0.037973
840.5147,0.037437
842.3784,0.037330
844.2420,0.037102
846.1057,0.036616
847.9694,0.036312
849.8330,0.036440
851.6967,0.036371
853.5604,0.036100
855.4240,0.035980
857.2877,0.035965
859.1514,0.035972
861.0150,0.035917
862.8787,0.035821
864.7424,0.035805
866.6060,0.035934
868.4697,0.035922
870.3334,0.035806
872.1971,0.036048
874.0607,0.036267
875.9244,0.036170
877.7881,0.036145
879.6517,0.036282
881.5154,0.036572
883.3791,0.036922
885.2427,0.037338
887.1064,0.037742
888.9701,0.038146
890.8337,0.038507
892.6974,0.038722
894.5611,0.039109
896.4247,0.039787
898.2884,0.040544
900.1521,0.041409
902.0158,0.042723
903.8794,0.044524
905.7431,0.046852
907.6068,0.049811
909.4704,0.053290
911.3341,0.057320
913.1978,0.061807
915.0614,0.064187
916.9251,0.059642
918.7888,0.049711
920.6524,0.041454
922.5161,0.037408
924.3798,0.035918
926.2435,0.035742
928.1071,0.036053
929.9708,0.036285
931.8345,0.036638
933.6981,0.037166
935.5618,0.037714
937.4255,0.038276
939.2891,0.038707
941.1528,0.038993
943.0165,0.039432
944.8801,0.039998
946.7438,0.040557
948.6075,0.041269
950.4711,0.042045
952.3348,0.042669
954.1985,0.043328
956.0622,0.044205
957.9258,0.045101
959.7895,0.045827
961.6532,0.046589
963.5168,0.047576
965.3805,0.048737
967.2442,0.050167
969.1078,0.051830
970.9715,0.053677
972.8352,0.056029
974.6988,0.059721
976.5625,0.065962
978.4262,0.076602
980.2899,0.091272
982.1535,0.097531
984.0172,0.081912
985.8809,0.059618
987.7445,0.048729
989.6082,0.046607
991.4719,0.046769
993.3355,0.047386
995.1992,0.048127
997.0629,0.048982
998.9265,0.049780
1000.7902,0.050535
1002.6539,0.051322
1004.5175,0.052105
1006.3812,0.052902
1008.2449,0.053650
1010.1086,0.054360
1011.9722,0.055057
1013.8359,0.055730
1015.6996,0.056418
1017.5632,0.057124
1019.4269,0.057789
1021.2906,0.058459
1023.1542,0.059136
1025.0179,0.059828
1026.8816,0.060607
1028.7452,0.061560
1030.6089,0.062626
1032.4726,0.063663
1034.3362,0.064768
1036.1999,0.066126
1038.0636,0.067810
1039.9273,0.069768
1041.7909,0.071973
1043.6546,0.074450
1045.5183,0.077105
1047.3819,0.079444
1049.2456,0.079824
1051.1093,0.076745
1052.9729,0.070933
1054.8366,0.065062
1056.7003,0.061010
1058.5639,0.058933
1060.4276,0.058331
1062.2913,0.058393
1064.1550,0.058613
1066.0186,0.059096
1067.8823,0.060007
1069.7460,0.061090
1071.6096,0.062059
1073.4733,0.062975
1075.3370,0.064022
1077.2006,0.065277
1079.0643,0.066625
1080.9280,0.068026
1082.7916,0.069701
1084.6553,0.071492
1086.5190,0.073484
1088.3826,0.075835
1090.2463,0.078352
1092.1100,0.081025
1093.9737,0.084005
1095.8373,0.087355
1097.7010,0.090976
1099.5647,0.094902
1101.4283,0.098877
1103.2920,0.102205
1105.1557,0.104391
1107.0193,0.104750
1108.8830,0.102235
1110.7467,0.096715
1112.6103,0.089227
1114.4740,0.081063
1116.3377,0.073406
1118.2014,0.067016
1120.0650,0.062086
1121.9287,0.058655
1123.7924,0.056435
1125.6560,0.054777
1127.5197,0.053269
1129.3834,0.051771
1131.2470,0.050218
1133.1107,0.048819
1134.9744,0.047726
1136.8380,0.046905
1138.7017,0.046408
1140.5654,0.046227
1142.4290,0.046167
1144.2927,0.046222
1146.1564,0.046449
1148.0201,0.046719
1149.8837,0.046989
1151.7474,0.047328
1153.6111,0.047759
1155.4747,0.048294
1157.3384,0.048918
1159.2021,0.049676
1161.0657,0.050565
1162.9294,0.051643
1164.7931,0.053168
1166.6567,0.055163
1168.5204,0.057568
1170.3841,0.060144
1172.2477,0.061894
1174.1114,0.061559
1175.9751,0.058795
1177.8388,0.054854
1179.7024,0.051554
1181.5661,0.049625
1183.4298,0.048736
1185.2934,0.048530
1187.1571,0.048610
1189.0208,0.048579
1190.8844,0.048451
1192.7481,0.048383
1194.6118,0.048331
1196.4754,0.048361
1198.3391,0.048465
1200.2028,0.048581
1202.0665,0.048785
1203.9301,0.049019
1205.7938,0.049305
1207.6575,0.049638
1209.5211,0.049942
1211.3848,0.050310
1213.2485,0.050745
1215.1121,0.051177
1216.9758,0.051629
1218.8395,0.052089
1220.7031,0.052520
1222.5668,0.052944
1224.4305,0.053397
1226.2941,0.053858
1228.1578,0.054311
1230.0215,0.054823
1231.8852,0.055316
1233.7488,0.055762
1235.6125,0.056229
1237.4762,0.056689
1239.3398,0.057133
1241.2035,0.057616
1243.0672,0.058094
1244.9308,0.058546
1246.7945,0.059038
1248.6582,0.059519
1250.5218,0.060027
1252.3855,0.060588
1254.2492,0.061062
1256.1129,0.061512
1257.9765,0.062105
1259.8402,0.062801
1261.7039,0.063561
1263.5675,0.064379
1265.4312,0.065018
1267.2949,0.065235
1269.1585,0.065211
1271.0222,0.065201
1272.8859,0.065290
1274.7495,0.065550
1276.6132,0.065990
1278.4769,0.066580
1280.3405,0.067371
1282.2042,0.068358
1284.0679,0.069470
1285.9316,0.070828
1287.7952,0.072450
1289.6589,0.074176
1291.5226,0.076131
1293.3862,0.078509
1295.2499,0.081267
1297.1136,0.084412
1298.9772,0.088173
1300.8409,0.092729
1302.7046,0.097559
1304.5682,0.100880
1306.4319,0.100411
1308.2956,0.094016
1310.1592,0.081703
1312.0229,0.068219
1313.8866,0.058762
1315.7503,0.054647
1317.6139,0.054024
1319.4776,0.055128
1321.3413,0.056762
1323.2049,0.058545
1325.0686,0.060491
1326.9323,0.062417
1328.7959,0.064282
1330.6596,0.066022
1332.5233,0.067473
1334.3869,0.068490
1336.2506,0.069331
1338.1143,0.070446
1339.9780,0.071598
1341.8416,0.072162
1343.7053,0.072475
1345.5690,0.073006
1347.4326,0.073733
1349.2963,0.074737
1351.1600,0.075863
1353.0236,0.077116
1354.8873,0.078846
1356.7510,0.080697
1358.6146,0.082268
1360.4783,0.084092
1362.3420,0.086750
1364.2056,0.089396
1366.0693,0.091290
1367.9330,0.093613
1369.7967,0.096166
1371.6603,0.098349
1373.5240,0.100926
1375.3877,0.103572
1377.2513,0.105719
1379.1150,0.108386
1380.9787,0.111643
1382.8423,0.115208
1384.7060,0.119119
1386.5697,0.123419
1388.4333,0.127862
1390.2970,0.131090
1392.1607,0.133124
1394.0244,0.133285
1395.8880,0.129988
1397.7517,0.125138
1399.6154,0.119158
1401.4790,0.113189
1403.3427,0.107872
1405.2064,0.099213
1407.0700,0.087682
1408.9337,0.076554
1410.7974,0.066084
1412.6610,0.058297
1414.5247,0.054454
1416.3884,0.054049
1418.2520,0.056779
1420.1157,0.062144
1421.9794,0.065759
1423.8431,0.065266
1425.7067,0.059873
1427.5704,0.053554
1429.4341,0.049190
1431.2977,0.047168
1433.1614,0.047086
1435.0251,0.048015
1436.8887,0.049860
1438.7524,0.051383
1440.6161,0.052412
1442.4797,0.053638
1444.3434,0.054639
1446.2071,0.055431
1448.0707,0.055709
1449.9344,0.054697
1451.7981,0.052901
1453.6618,0.051052
1455.5254,0.050301
1457.3891,0.051595
1459.2528,0.052743
1461.1164,0.052816
1462.9801,0.053281
1464.8438,0.053676
1466.7074,0.052917
1468.5711,0.051901
1470.4348,0.051514
1472.2984,0.051574
1474.1621,0.051673
1476.0258,0.051664
1477.8895,0.051613
1479.7531,0.051602
1481.6168,0.051942
1483.4805,0.052254
1485.3441,0.052558
1487.2078,0.053189
1489.0715,0.054270
1490.9351,0.055233
1492.7988,0.055551
1494.6625,0.056040
1496.5261,0.057439
1498.3898,0.058732
1500.2535,0.059137
1502.1171,0.059253
1503.9808,0.059762
1505.8445,0.061251
1507.7082,0.063709
1509.5718,0.064210
1511.4355,0.064804
1513.2992,0.065619
1515.1628,0.066539
1517.0265,0.067847
1518.8902,0.068902
1520.7538,0.069789
1522.6175,0.071157
1524.4812,0.071943
1526.3448,0.072866
1528.2085,0.073457
1530.0722,0.073939
1531.9359,0.075006
1533.7995,0.076511
1535.6632,0.077111
1537.5269,0.077820
1539.3905,0.079798
1541.2542,0.082466
1543.1179,0.083605
1544.9815,0.084691
1546.8452,0.085931
1548.7089,0.087543
1550.5725,0.089340
1552.4362,0.090746
1554.2999,0.092118
1556.1635,0.093986
1558.0272,0.096801
1559.8909,0.100378
1561.7546,0.100405
1563.6182,0.101423
1565.4819,0.103352
1567.3456,0.105480
1569.2092,0.107579
1571.0729,0.109573
1572.9366,0.111301
1574.8002,0.113850
1576.6639,0.116472
1578.5276,0.117939
1580.3912,0.119363
1582.2549,0.121119
1584.1186,0.122609
1585.9822,0.123778
1587.8459,0.124444
1589.7096,0.124597
1591.5733,0.124235
1593.4369,0.123689
1595.3006,0.122657
1597.1643,0.121206
1599.0279,0.119691
1600.8916,0.118027
1602.7553,0.116113
1604.6189,0.114356
1606.4826,0.113077
1608.3463,0.111824
1610.2099,0.110297
1612.0736,0.108741
1613.9373,0.107444
1615.8010,0.105070
1617.6646,0.099168
1619.5283,0.094647
1621.3920,0.092211
1623.2556,0.087636
1625.1193,0.081592
1626.9830,0.076715
1628.8466,0.070831
1630.7103,0.064816
1632.5740,0.060213
1634.4376,0.055522
1636.3013,0.049347
1638.1650,0.045371
1640.0286,0.044406
1641.8923,0.043751
1643.7560,0.043842
1645.6197,0.044447
1647.4833,0.045782
1649.3470,0.047551
1651.2107,0.049480
1653.0743,0.051457
1654.9380,0.053180
1656.8017,0.054443
1658.6653,0.055748
1660.5290,0.056241
1662.3927,0.055846
1664.2563,0.054997
1666.1200,0.054390
1667.9837,0.053565
1669.8474,0.052213
1671.7110,0.051292
1673.5747,0.051754
1675.4384,0.052832
1677.3020,0.054612
1679.1657,0.056922
1681.0294,0.059905
1682.8930,0.062581
1684.7567,0.064583
1686.6204,0.065387
1688.4840,0.066054
1690.3477,0.065593
1692.2114,0.064228
1694.0750,0.062842
1695.9387,0.060530
1697.8024,0.057754
1699.6661,0.056061
1701.5297,0.050467
1703.3934,0.046576
1705.2571,0.042529
1707.1207,0.036100
1708.9844,0.031565
1710.8481,0.028447
1712.7117,0.025879
1714.5754,0.024191
1716.4391,0.022483
1718.3027,0.020938
1720.1664,0.020069
1722.0301,0.019657
1723.8937,0.018547
1725.7574,0.017138
1727.6211,0.015753
1729.4848,0.014458
1731.3484,0.013380
1733.2121,0.012653
1735.0758,0.011234
1736.9394,0.010684
1738.8031,0.010696
1740.6668,0.010357
1742.5304,0.009881
1744.3941,0.009634
1746.2578,0.009228
1748.1214,0.008949
1749.9851,0.008484
1751.8488,0.008158
1753.7125,0.008048
1755.5761,0.008106
1757.4398,0.008000
1759.3035,0.007926
1761.1671,0.007767
1763.0308,0.007552
1764.8945,0.007503
1766.7581,0.007532
1768.6218,0.007317
1770.4855,0.007423
1772.3491,0.007386
1774.2128,0.007127
1776.0765,0.007190
1777.9401,0.007422
1779.8038,0.007417
1781.6675,0.007468
1783.5312,0.007480
1785.3948,0.007565
1787.2585,0.007483
1789.1222,0.007470
1790.9858,0.007583
1792.8495,0.007563
1794.7132,0.007398
1796.5768,0.007520
1798.4405,0.007586
1800.3042,0.007559
1802.1678,0.007480
1804.0315,0.007637
1805.8952,0.007747
1807.7589,0.007842
1809.6225,0.007722
1811.4862,0.007592
1813.3499,0.007510
1815.2135,0.007509
1817.0772,0.007659
1818.9409,0.007825
1820.8045,0.007651
1822.6682,0.007731
1824.5319,0.007736
1826.3955,0.007511
1828.2592,0.007470
1830.1229,0.007529
1831.9865,0.007249
1833.8502,0.007383
1835.7139,0.007370
1837.5776,0.007222
1839.4412,0.007428
1841.3049,0.007771
1843.1686,0.007693
1845.0322,0.007461
1846.8959,0.007485
1848.7596,0.007745
1850.6232,0.007558
1852.4869,0.007534
1854.3506,0.007687
1856.2142,0.007954
1858.0779,0.007860
1859.9416,0.007732
1861.8052,0.007687
1863.6689,0.007684
1865.5326,0.007776
1867.3963,0.007992
1869.2599,0.007951
1871.1236,0.007681
1872.9873,0.007438
1874.8509,0.007736
1876.7146,0.007964
1878.5783,0.007939
1880.4419,0.007782
1882.3056,0.007645
1884.1693,0.007464
1886.0329,0.007668
1887.8966,0.008030
1889.7603,0.007914
1891.6240,0.007661
1893.4876,0.007900
1895.3513,0.007782
1897.2150,0.007609
1899.0786,0.007810
1900.9423,0.008185
1902.8060,0.007920
1904.6696,0.007670
1906.5333,0.007641
1908.3970,0.007720
1910.2606,0.007691
1912.1243,0.007790
1913.9880,0.007549
1915.8516,0.007728
1917.7153,0.007831
1919.5790,0.007873
1921.4427,0.008144
1923.3063,0.007970
1925.1700,0.007408
1927.0337,0.007188
1928.8973,0.007176
1930.7610,0.007633
1932.6247,0.007871
1934.4883,0.008465
1936.3520,0.008409
1938.2157,0.007941
1940.0793,0.007614
1941.9430,0.007298
1943.8067,0.006096
1945.6704,0.006102
1947.5340,0.006637
1949.3977,0.006692
1951.2614,0.006878
1953.1250,0.006968
1954.9887,0.006944
1956.8524,0.006985
1958.7160,0.005371
1960.5797,0.004616
1962.4434,0.004363
1964.3070,0.004561
1966.1707,0.004473
1968.0344,0.004906
1969.8980,0.004285
1971.7617,0.003316
1973.6254,0.002914
1975.4891,0.004162
1977.3527,0.004061
1979.2164,0.004214
1981.0801,0.004915
1982.9437,0.005602
1984.8074,0.006594
1986.6711,0.007448
1988.5347,0.007236
1990.3984,0.007150
1992.2621,0.006298
1994.1257,0.006255
1995.9894,0.006886
1997.8531,0.007337
1999.7167,0.007277
2001.5804,0.007412
2003.4441,0.006712
2005.3078,0.005638
2007.1714,0.004799
2009.0351,0.005256
2010.8988,0.006499
2012.7624,0.006496
2014.6261,0.004657
2016.4898,0.003764
2018.3534,0.004305
2020.2171,0.005044
2022.0808,0.004412
2023.9444,0.004427
2025.8081,0.004592
2027.6718,0.004331
2029.5355,0.003625
2031.3991,0.003235
2033.2628,0.004183
2035.1265,0.006394
2036.9901,0.007004
2038.8538,0.007724
2040.7175,0.007987
2042.5811,0.007468
2044.4448,0.006582
2046.3085,0.005934
2048.1721,0.005440
2050.0358,0.006821
2051.8995,0.008058
2053.7631,0.007941
2055.6268,0.008004
2057.4905,0.008888
2059.3542,0.008558
2061.2178,0.008281
2063.0815,0.008088
2064.9452,0.008714
2066.8088,0.009292
2068.6725,0.009064
2070.5362,0.008585
2072.3998,0.009185
2074.2635,0.009643
2076.1272,0.010187
2077.9908,0.010399
2079.8545,0.010277
2081.7182,0.010562
2083.5819,0.011046
2085.4455,0.010665
2087.3092,0.009781
2089.1729,0.009317
2091.0365,0.009710
2092.9002,0.009953
2094.7639,0.010297
2096.6275,0.010543
2098.4912,0.010440
2100.3549,0.010245
2102.2185,0.010196
2104.0822,0.010344
2105.9459,0.010395
2107.8095,0.010642
2109.6732,0.011065
2111.5369,0.011310
2113.4006,0.011065
2115.2642,0.010545
2117.1279,0.010613
2118.9916,0.011261
2120.8552,0.011758
2122.7189,0.011305
2124.5826,0.011099
2126.4462,0.010879
2128.3099,0.010454
2130.1736,0.009892
2132.0372,0.009640
2133.9009,0.009227
2135.7646,0.008714
2137.6282,0.008784
2139.4919,0.008966
2141.3556,0.008736
2143.2193,0.008925
2145.0829,0.008878
2146.9466,0.008455
2148.8103,0.008250
2150.6739,0.008046
2152.5376,0.007336
2154.4013,0.006778
2156.2649,0.006581
2158.1286,0.006664
2159.9923,0.005827
2161.8559,0.006585
2163.7196,0.006848
2165.5833,0.006941
2167.4470,0.007464
2169.3106,0.007629
2171.1743,0.008079
2173.0380,0.007985
2174.9016,0.007761
2176.7653,0.008860
2178.6290,0.008688
2180.4926,0.008629
2182.3563,0.009016
2184.2200,0.009061
2186.0836,0.008756
2187.9473,0.008888
2189.8110,0.008489
2191.6746,0.008737
2193.5383,0.008994
2195.4020,0.008667
2197.2657,0.008178
2199.1293,0.008900
2200.9930,0.009699
2202.8567,0.009798
2204.7203,0.010078
2206.5840,0.010492
2208.4477,0.010848
2210.3113,0.010815
2212.1750,0.010240
2214.0387,0.010891
2215.9023,0.012243
2217.7660,0.012189
2219.6297,0.010965
2221.4934,0.010856
2223.3570,0.011091
2225.2207,0.011890
2227.0844,0.012931
2228.9480,0.013099
2230.8117,0.012551
2232.6754,0.012383
2234.5390,0.012929
2236.4027,0.012785
2238.2664,0.012633
2240.1300,0.012620
2241.9937,0.012235
2243.8574,0.012502
2245.7210,0.012897
2247.5847,0.012494
2249.4484,0.012478
2251.3121,0.013472
2253.1757,0.013432
2255.0394,0.013175
2256.9031,0.013704
2258.7667,0.013967
2260.6304,0.013906
2262.4941,0.014115
2264.3577,0.013970
2266.2214,0.014004
2268.0851,0.014532
2269.9487,0.014747
2271.8124,0.014826
2273.6761,0.015136
2275.5397,0.015237
2277.4034,0.015267
2279.2671,0.015140
2281.1308,0.015545
2282.9944,0.016326
2284.8581,0.016848
2286.7218,0.016890
2288.5854,0.016544
2290.4491,0.016195
2292.3128,0.016404
2294.1764,0.016848
2296.0401,0.016817
2297.9038,0.016278
2299.7674,0.016296
2301.6311,0.016423
2303.4948,0.016540
2305.3585,0.016822
2307.2221,0.016615
2309.0858,0.016286
2310.9495,0.016508
2312.8131,0.016983
2314.6768,0.017262
2316.5405,0.017138
2318.4041,0.016928
2320.2678,0.016828
2322.1315,0.016760
2323.9951,0.016715
2325.8588,0.016342
2327.7225,0.015933
2329.5861,0.015759
2331.4498,0.015638
2333.3135,0.015657
2335.1772,0.015802
2337.0408,0.015738
2338.9045,0.015671
2340.7682,0.015797
2342.6318,0.015729
2344.4955,0.015738
2346.3592,0.015747
2348.2228,0.015646
2350.0865,0.015563
2351.9502,0.015445
2353.8138,0.015218
2355.6775,0.015250
2357.5412,0.015865
2359.4049,0.015791
2361.2685,0.015052
2363.1322,0.015113
2364.9959,0.015327
2366.8595,0.015259
2368.7232,0.015560
2370.5869,0.015664
2372.4505,0.015693
2374.3142,0.015895
2376.1779,0.016430
2378.0415,0.016830
2379.9052,0.016784
2381.7689,0.016759
2383.6325,0.016490
2385.4962,0.016366
2387.3599,0.016400
2389.2236,0.016358
2391.0872,0.016403
2392.9509,0.016478
2394.8146,0.016539
2396.6782,0.016541
2398.5419,0.016702
2400.4056,0.016918
2402.2692,0.016970
2404.1329,0.016927
2405.9966,0.017197
2407.8602,0.017201
2409.7239,0.017164
2411.5876,0.017273
2413.4512,0.017310
2415.3149,0.017175
2417.1786,0.017208
2419.0423,0.017361
2420.9059,0.017383
2422.7696,0.017785
2424.6333,0.018061
2426.4969,0.018040
2428.3606,0.017788
2430.2243,0.017743
2432.0879,0.017808
2433.9516,0.017764
2435.8153,0.017962
2437.6789,0.017931
2439.5426,0.017959
2441.4063,0.017867
2443.2700,0.017551
2445.1336,0.017583
2446.9973,0.017600
2448.8610,0.017619
2450.7246,0.017728
2452.5883,0.017845
2454.4520,0.017827
2456.3156,0.017829
2458.1793,0.017811
2460.0430,0.017640
2461.9066,0.017372
2463.7703,0.017746
2465.6340,0.017812
2467.4976,0.017369
2469.3613,0.017298
2471.2250,0.017839
2473.0887,0.017793
2474.9523,0.017774
2476.8160,0.018219
2478.6797,0.018191
2480.5433,0.018032
2482.4070,0.017875
2484.2707,0.017783
2486.1343,0.018096
2487.9980,0.018005
2489.8617,0.017991
2491.7253,0.018317
2493.5890,0.018436
2495.4527,0.018468
2497.3164,0.018715
2499.1800,0.018926
2501.0437,0.019043
2502.9074,0.018968
2504.7710,0.019025
2506.6347,0.019108
2508.4984,0.019002
2510.3620,0.018708
2512.2257,0.018610
2514.0894,0.018774
2515.9530,0.018853
2517.8167,0.019597
2519.6804,0.019709
2521.5440,0.019418
2523.4077,0.019604
2525.2714,0.019571
2527.1351,0.019599
