Wavenumber,Intensity
650.4205,0.162904
652.2841,0.161531
654.1478,0.158398
656.0115,0.153744
657.8751,0.151054
659.7388,0.149056
661.6025,0.146881
663.4661,0.145634
665.3298,0.145204
667.1935,0.144980
669.0571,0.147017
670.9208,0.146927
672.7845,0.146203
674.6481,0.144026
676.5118,0.142258
678.3755,0.141588
680.2392,0.141697
682.1028,0.141619
683.9665,0.141659
685.8302,0.141536
687.6938,0.141565
689.5575,0.141211
691.4212,0.140748
693.2848,0.140159
695.1485,0.141148
697.0122,0.142540
698.8758,0.143602
700.7395,0.143687
702.6032,0.142736
704.4669,0.140796
706.3305,0.137308
708.1942,0.132014
710.0579,0.126040
711.9215,0.119412
713.7852,0.113394
715.6489,0.107751
717.5125,0.102367
719.3762,0.097866
721.2399,0.094169
723.1035,0.090716
724.9672,0.087440
726.8309,0.085004
728.6945,0.082713
730.5582,0.079412
732.4219,0.076372
734.2856,0.073571
736.1492,0.071047
738.0129,0.069343
739.8766,0.069693
741.7402,0.071488
743.6039,0.073431
745.4676,0.074764
747.3312,0.074992
749.1949,0.074465
751.0586,0.073529
752.9222,0.072494
754.7859,0.071654
756.6496,0.070937
758.5132,0.070270
760.3769,0.069749
762.2406,0.069485
764.1043,0.069491
765.9679,0.069401
767.8316,0.069056
769.6953,0.068811
771.5589,0.068780
773.4226,0.069173
775.2863,0.069734
777.1499,0.070451
779.0136,0.071428
780.8773,0.072131
782.7409,0.072799
784.6046,0.074062
786.4683,0.075553
788.3320,0.076923
790.1956,0.078349
792.0593,0.080054
793.9230,0.081661
795.7866,0.083074
797.6503,0.084449
799.5140,0.085818
801.3776,0.086944
803.2413,0.087601
805.1050,0.087047
806.9686,0.085985
808.8323,0.084473
810.6960,0.082399
812.5596,0.080148
814.4233,0.077771
816.2870,0.075382
818.1507,0.073187
820.0143,0.071050
821.8780,0.069483
823.7417,0.068669
825.6053,0.068738
827.4690,0.069945
829.3327,0.070725
831.1963,0.066664
833.0600,0.057512
834.9237,0.049528
836.7873,0.045682
838.6510,0.044462
840.5147,0.044207
842.3784,0.044011
844.2420,0.043780
846.1057,0.043690
847.9694,0.043545
849.8330,0.043395
851.6967,0.043464
853.5604,0.043565
855.4240,0.043436
857.2877,0.043372
859.1514,0.043312
861.0150,0.043119
862.8787,0.043027
864.7424,0.043104
866.6060,0.043358
868.4697,0.043570
870.3334,0.043677
872.1971,0.043669
874.0607,0.043666
875.9244,0.043991
877.7881,0.044333
879.6517,0.044445
881.5154,0.044779
883.3791,0.045379
885.2427,0.045759
887.1064,0.046059
888.9701,0.046487
890.8337,0.047127
892.6974,0.047833
894.5611,0.048501
896.4247,0.049253
898.2884,0.050190
900.1521,0.051578
902.0158,0.053295
903.8794,0.055233
905.7431,0.057934
907.6068,0.061435
909.4704,0.065326
911.3341,0.070074
913.1978,0.075796
915.0614,0.078444
916.9251,0.072419
918.7888,0.060553
920.6524,0.051165
922.5161,0.046961
924.3798,0.045749
926.2435,0.045682
928.1071,0.046060
929.9708,0.046616
931.8345,0.047305
933.6981,0.048000
935.5618,0.048670
937.4255,0.049215
939.2891,0.049722
941.1528,0.050285
943.0165,0.050862
944.8801,0.051560
946.7438,0.052408
948.6075,0.053157
950.4711,0.053895
952.3348,0.054856
954.1985,0.055842
956.0622,0.056710
957.9258,0.057577
959.7895,0.058646
961.6532,0.059826
963.5168,0.061042
965.3805,0.062537
967.2442,0.064385
969.1078,0.066471
970.9715,0.068740
972.8352,0.071496
974.6988,0.075775
976.5625,0.083035
978.4262,0.095253
980.2899,0.111990
982.1535,0.118757
984.0172,0.100201
985.8809,0.074766
987.7445,0.063048
989.6082,0.061193
991.4719,0.061679
993.3355,0.062720
995.1992,0.063882
997.0629,0.064983
998.9265,0.066129
1000.7902,0.067394
1002.6539,0.068581
1004.5175,0.069658
1006.3812,0.070809
1008.2449,0.072004
1010.1086,0.072934
1011.9722,0.073501
1013.8359,0.073918
1015.6996,0.074231
1017.5632,0.074473
1019.4269,0.074605
1021.2906,0.074639
1023.1542,0.074711
1025.0179,0.074855
1026.8816,0.075266
1028.7452,0.075879
1030.6089,0.076476
1032.4726,0.077177
1034.3362,0.078104
1036.1999,0.079236
1038.0636,0.080698
1039.9273,0.082544
1041.7909,0.084709
1043.6546,0.087233
1045.5183,0.089958
1047.3819,0.092063
1049.2456,0.091908
1051.1093,0.087889
1052.9729,0.080879
1054.8366,0.073975
1056.7003,0.069427
1058.5639,0.067341
1060.4276,0.066875
1062.2913,0.067186
1064.1550,0.067767
1066.0186,0.068524
1067.8823,0.069424
1069.7460,0.070512
1071.6096,0.071755
1073.4733,0.073020
1075.3370,0.074381
1077.2006,0.075879
1079.0643,0.077427
1080.9280,0.079002
1082.7916,0.080751
1084.6553,0.082841
1086.5190,0.085144
1088.3826,0.087685
1090.2463,0.090647
1092.1100,0.093926
1093.9737,0.097600
1095.8373,0.101751
1097.7010,0.106350
1099.5647,0.111181
1101.4283,0.115943
1103.2920,0.120400
1105.1557,0.123691
1107.0193,0.124321
1108.8830,0.121244
1110.7467,0.114388
1112.6103,0.105118
1114.4740,0.095251
1116.3377,0.085998
1118.2014,0.078238
1120.0650,0.072457
1121.9287,0.068473
1123.7924,0.065759
1125.6560,0.063724
1127.5197,0.061850
1129.3834,0.060015
1131.2470,0.058392
1133.1107,0.056905
1134.9744,0.055654
1136.8380,0.054848
1138.7017,0.054410
1140.5654,0.054120
1142.4290,0.054026
1144.2927,0.054169
1146.1564,0.054346
1148.0201,0.054545
1149.8837,0.054888
1151.7474,0.055330
1153.6111,0.055758
1155.4747,0.056320
1157.3384,0.057113
1159.2021,0.058007
1161.0657,0.059049
1162.9294,0.060412
1164.7931,0.062318
1166.6567,0.064799
1168.5204,0.067763
1170.3841,0.070858
1172.2477,0.073029
1174.1114,0.072861
1175.9751,0.069823
1177.8388,0.065342
1179.7024,0.061548
1181.5661,0.059354
1183.4298,0.058402
1185.2934,0.058046
1187.1571,0.057988
1189.0208,0.058027
1190.8844,0.058100
1192.7481,0.058160
1194.6118,0.058146
1196.4754,0.058336
1198.3391,0.058765
1200.2028,0.059178
1202.0665,0.059650
1203.9301,0.060095
1205.7938,0.060357
1207.6575,0.060564
1209.5211,0.060793
1211.3848,0.060915
1213.2485,0.060971
1215.1121,0.061027
1216.9758,0.061008
1218.8395,0.061017
1220.7031,0.061172
1222.5668,0.061445
1224.4305,0.061731
1226.2941,0.061974
1228.1578,0.062307
1230.0215,0.062629
1231.8852,0.062843
1233.7488,0.063153
1235.6125,0.063632
1237.4762,0.064026
1239.3398,0.064387
1241.2035,0.064848
1243.0672,0.065325
1244.9308,0.065839
1246.7945,0.066371
1248.6582,0.066847
1250.5218,0.067377
1252.3855,0.067991
1254.2492,0.068585
1256.1129,0.069165
1257.9765,0.069847
1259.8402,0.070670
1261.7039,0.071474
1263.5675,0.072219
1265.4312,0.072946
1267.2949,0.073399
1269.1585,0.073511
1271.0222,0.073490
1272.8859,0.073499
1274.7495,0.073739
1276.6132,0.074331
1278.4769,0.075144
1280.3405,0.076126
1282.2042,0.077381
1284.0679,0.078815
1285.9316,0.080336
1287.7952,0.082135
1289.6589,0.084242
1291.5226,0.086679
1293.3862,0.089462
1295.2499,0.092687
1297.1136,0.096459
1298.9772,0.100990
1300.8409,0.106537
1302.7046,0.112514
1304.5682,0.117055
1306.4319,0.117158
1308.2956,0.109534
1310.1592,0.094481
1312.0229,0.078188
1313.8866,0.066802
1315.7503,0.062084
1317.6139,0.061593
1319.4776,0.062949
1321.3413,0.064841
1323.2049,0.066838
1325.0686,0.069059
1326.9323,0.071398
1328.7959,0.073674
1330.6596,0.075738
1332.5233,0.077426
1334.3869,0.078579
1336.2506,0.079478
1338.1143,0.080834
1339.9780,0.082314
1341.8416,0.082745
1343.7053,0.082899
1345.5690,0.083441
1347.4326,0.084261
1349.2963,0.085324
1351.1600,0.086563
1353.0236,0.088009
1354.8873,0.089843
1356.7510,0.091746
1358.6146,0.093518
1360.4783,0.095912
1362.3420,0.099560
1364.2056,0.102515
1366.0693,0.104293
1367.9330,0.106872
1369.7967,0.109719
1371.6603,0.112219
1373.5240,0.115662
1375.3877,0.119130
1377.2513,0.121615
1379.1150,0.124951
1380.9787,0.129020
1382.8423,0.133279
1384.7060,0.138072
1386.5697,0.144013
1388.4333,0.150017
1390.2970,0.153782
1392.1607,0.156430
1394.0244,0.157534
1395.8880,0.153894
1397.7517,0.147898
1399.6154,0.140329
1401.4790,0.132896
1403.3427,0.126752
1405.2064,0.116181
1407.0700,0.101829
1408.9337,0.088435
1410.7974,0.075900
1412.6610,0.066666
1414.5247,0.062329
1416.3884,0.062035
1418.2520,0.065763
1420.1157,0.072060
1421.9794,0.075797
1423.8431,0.074910
1425.7067,0.068055
1427.5704,0.060707
1429.4341,0.055870
1431.2977,0.053765
1433.1614,0.053738
1435.0251,0.055049
1436.8887,0.057628
1438.7524,0.059364
1440.6161,0.060430
1442.4797,0.061743
1444.3434,0.063044
1446.2071,0.064250
1448.0707,0.064606
1449.9344,0.063103
1451.7981,0.061062
1453.6618,0.059022
1455.5254,0.058949
1457.3891,0.061455
1459.2528,0.062319
1461.1164,0.061870
1462.9801,0.062549
1464.8438,0.063178
1466.7074,0.062234
1468.5711,0.060885
1470.4348,0.060559
1472.2984,0.061165
1474.1621,0.061323
1476.0258,0.060926
1477.8895,0.060567
1479.7531,0.060661
1481.6168,0.061218
1483.4805,0.061542
1485.3441,0.061868
1487.2078,0.062616
1489.0715,0.064388
1490.9351,0.065386
1492.7988,0.065083
1494.6625,0.065681
1496.5261,0.067532
1498.3898,0.068971
1500.2535,0.069259
1502.1171,0.069111
1503.9808,0.069513
1505.8445,0.071876
1507.7082,0.075780
1509.5718,0.074950
1511.4355,0.075061
1513.2992,0.075852
1515.1628,0.077200
1517.0265,0.078362
1518.8902,0.079197
1520.7538,0.080970
1522.6175,0.082572
1524.4812,0.083102
1526.3448,0.084257
1528.2085,0.084857
1530.0722,0.085145
1531.9359,0.086575
1533.7995,0.088307
1535.6632,0.087962
1537.5269,0.088670
1539.3905,0.091778
1541.2542,0.095589
1543.1179,0.096366
1544.9815,0.097726
1546.8452,0.098569
1548.7089,0.100163
1550.5725,0.102175
1552.4362,0.103789
1554.2999,0.104926
1556.1635,0.106924
1558.0272,0.111751
1559.8909,0.117649
1561.7546,0.115447
1563.6182,0.116306
1565.4819,0.118364
1567.3456,0.120791
1569.2092,0.123793
1571.0729,0.125781
1572.9366,0.127041
1574.8002,0.130414
1576.6639,0.134698
1578.5276,0.136044
1580.3912,0.137211
1582.2549,0.139253
1584.1186,0.141089
1585.9822,0.142476
1587.8459,0.143267
1589.7096,0.143535
1591.5733,0.143174
1593.4369,0.142640
1595.3006,0.141540
1597.1643,0.139813
1599.0279,0.138081
1600.8916,0.136384
1602.7553,0.134456
1604.6189,0.132476
1606.4826,0.131168
1608.3463,0.129935
1610.2099,0.128194
1612.0736,0.126228
1613.9373,0.124540
1615.8010,0.122332
1617.6646,0.115564
1619.5283,0.109633
1621.3920,0.106846
1623.2556,0.101786
1625.1193,0.094375
1626.9830,0.088636
1628.8466,0.081163
1630.7103,0.073635
1632.5740,0.068358
1634.4376,0.063390
1636.3013,0.055761
1638.1650,0.050557
1640.0286,0.049615
1641.8923,0.048898
1643.7560,0.049353
1645.6197,0.050704
1647.4833,0.052209
1649.3470,0.053684
1651.2107,0.056644
1653.0743,0.060360
1654.9380,0.061609
1656.8017,0.062245
1658.6653,0.063491
1660.5290,0.064381
1662.3927,0.064225
1664.2563,0.062307
1666.1200,0.061248
1667.9837,0.060512
1669.8474,0.058715
1671.7110,0.057183
1673.5747,0.057905
1675.4384,0.059389
1677.3020,0.061326
1679.1657,0.064042
1681.0294,0.067762
1682.8930,0.072127
1684.7567,0.075457
1686.6204,0.076104
1688.4840,0.076515
1690.3477,0.075824
1692.2114,0.074189
1694.0750,0.073080
1695.9387,0.071081
1697.8024,0.067202
1699.6661,0.065227
1701.5297,0.058065
1703.3934,0.053533
1705.2571,0.048340
1707.1207,0.040080
1708.9844,0.034700
1710.8481,0.031055
1712.7117,0.028013
1714.5754,0.026113
1716.4391,0.024255
1718.3027,0.022363
1720.1664,0.021060
1722.0301,0.020810
1723.8937,0.019523
1725.7574,0.017951
1727.6211,0.016552
1729.4848,0.015369
1731.3484,0.014100
1733.2121,0.013463
1735.0758,0.011264
1736.9394,0.011118
1738.8031,0.011373
1740.6668,0.010790
1742.5304,0.010369
1744.3941,0.010447
1746.2578,0.010365
1748.1214,0.010362
1749.9851,0.009880
1751.8488,0.009684
1753.7125,0.009713
1755.5761,0.010177
1757.4398,0.010022
1759.3035,0.010002
1761.1671,0.010038
1763.0308,0.009552
1764.8945,0.009144
1766.7581,0.009430
1768.6218,0.009277
1770.4855,0.009395
1772.3491,0.008937
1774.2128,0.008404
1776.0765,0.008425
1777.9401,0.008558
1779.8038,0.008712
1781.6675,0.008703
1783.5312,0.008790
1785.3948,0.008876
1787.2585,0.008728
1789.1222,0.008849
1790.9858,0.009083
1792.8495,0.008954
1794.7132,0.008525
1796.5768,0.008697
1798.4405,0.008968
1800.3042,0.009079
1802.1678,0.008794
1804.0315,0.008746
1805.8952,0.008910
1807.7589,0.009184
1809.6225,0.009179
1811.4862,0.009167
1813.3499,0.009112
1815.2135,0.009211
1817.0772,0.009195
1818.9409,0.009290
1820.8045,0.009139
1822.6682,0.009284
1824.5319,0.009370
1826.3955,0.008982
1828.2592,0.008979
1830.1229,0.009090
1831.9865,0.008647
1833.8502,0.008551
1835.7139,0.008666
1837.5776,0.008915
1839.4412,0.008874
1841.3049,0.009168
1843.1686,0.009281
1845.0322,0.008999
1846.8959,0.008939
1848.7596,0.009072
1850.6232,0.009064
1852.4869,0.009247
1854.3506,0.009166
1856.2142,0.009170
1858.0779,0.009114
1859.9416,0.009268
1861.8052,0.009181
1863.6689,0.009337
1865.5326,0.009304
1867.3963,0.009476
1869.2599,0.009340
1871.1236,0.009139
1872.9873,0.008962
1874.8509,0.009103
1876.7146,0.009182
1878.5783,0.009519
1880.4419,0.009190
1882.3056,0.009085
1884.1693,0.009509
1886.0329,0.009695
1887.8966,0.009424
1889.7603,0.009226
1891.6240,0.009375
1893.4876,0.009716
1895.3513,0.009570
1897.2150,0.009586
1899.0786,0.009265
1900.9423,0.009400
1902.8060,0.009371
1904.6696,0.009113
1906.5333,0.009245
1908.3970,0.009867
1910.2606,0.009766
1912.1243,0.009424
1913.9880,0.009123
1915.8516,0.009166
1917.7153,0.009199
1919.5790,0.009927
1921.4427,0.010088
1923.3063,0.009484
1925.1700,0.009026
1927.0337,0.009304
1928.8973,0.009427
1930.7610,0.009696
1932.6247,0.009971
1934.4883,0.010511
1936.3520,0.009952
1938.2157,0.009304
1940.0793,0.009088
1941.9430,0.009146
1943.8067,0.009123
1945.6704,0.009389
1947.5340,0.008792
1949.3977,0.008743
1951.2614,0.007909
1953.1250,0.007806
1954.9887,0.008277
1956.8524,0.008503
1958.7160,0.007570
1960.5797,0.006548
1962.4434,0.005082
1964.3070,0.005719
1966.1707,0.005992
1968.0344,0.006199
1969.8980,0.005458
1971.7617,0.005118
1973.6254,0.004494
1975.4891,0.004767
1977.3527,0.005350
1979.2164,0.006211
1981.0801,0.006474
1982.9437,0.007170
1984.8074,0.005856
1986.6711,0.005494
1988.5347,0.006554
1990.3984,0.007793
1992.2621,0.007419
1994.1257,0.007544
1995.9894,0.007641
1997.8531,0.007794
1999.7167,0.007911
2001.5804,0.008236
2003.4441,0.007498
2005.3078,0.007888
2007.1714,0.007779
2009.0351,0.006398
2010.8988,0.005251
2012.7624,0.005548
2014.6261,0.006523
2016.4898,0.007044
2018.3534,0.006415
2020.2171,0.005795
2022.0808,0.005573
2023.9444,0.006460
2025.8081,0.006313
2027.6718,0.006806
2029.5355,0.005525
2031.3991,0.004972
2033.2628,0.006028
2035.1265,0.006895
2036.9901,0.006560
2038.8538,0.006935
2040.7175,0.006601
2042.5811,0.007442
2044.4448,0.007683
2046.3085,0.007434
2048.1721,0.007474
2050.0358,0.008732
2051.8995,0.009367
2053.7631,0.010076
2055.6268,0.010173
2057.4905,0.010124
2059.3542,0.010071
2061.2178,0.010614
2063.0815,0.009941
2064.9452,0.009705
2066.8088,0.010847
2068.6725,0.011985
2070.5362,0.011373
2072.3998,0.010944
2074.2635,0.011236
2076.1272,0.012283
2077.9908,0.012140
2079.8545,0.011930
2081.7182,0.012352
2083.5819,0.012642
2085.4455,0.012190
2087.3092,0.011982
2089.1729,0.012422
2091.0365,0.012474
2092.9002,0.011973
2094.7639,0.012848
2096.6275,0.012851
2098.4912,0.012472
2100.3549,0.012691
2102.2185,0.013124
2104.0822,0.012705
2105.9459,0.012618
2107.8095,0.013000
2109.6732,0.013330
2111.5369,0.012822
2113.4006,0.012975
2115.2642,0.013220
2117.1279,0.013749
2118.9916,0.013797
2120.8552,0.013866
2122.7189,0.013758
2124.5826,0.013802
2126.4462,0.013533
2128.3099,0.013147
2130.1736,0.011952
2132.0372,0.011504
2133.9009,0.012116
2135.7646,0.012251
2137.6282,0.012087
2139.4919,0.012132
2141.3556,0.011189
2143.2193,0.010530
2145.0829,0.010530
2146.9466,0.010917
2148.8103,0.011059
2150.6739,0.011055
2152.5376,0.009283
2154.4013,0.007582
2156.2649,0.006311
2158.1286,0.006427
2159.9923,0.006840
2161.8559,0.007759
2163.7196,0.008238
2165.5833,0.009189
2167.4470,0.009249
2169.3106,0.008894
2171.1743,0.007954
2173.0380,0.009421
2174.9016,0.009761
2176.7653,0.009633
2178.6290,0.009508
2180.4926,0.009564
2182.3563,0.009840
2184.2200,0.010132
2186.0836,0.010107
2187.9473,0.009857
2189.8110,0.010153
2191.6746,0.011866
2193.5383,0.011457
2195.4020,0.011113
2197.2657,0.011137
2199.1293,0.012063
2200.9930,0.012554
2202.8567,0.012377
2204.7203,0.011868
2206.5840,0.012167
2208.4477,0.012350
2210.3113,0.012789
2212.1750,0.012889
2214.0387,0.013147
2215.9023,0.012860
2217.7660,0.013459
2219.6297,0.013559
2221.4934,0.013156
2223.3570,0.013007
2225.2207,0.014449
2227.0844,0.015535
2228.9480,0.015150
2230.8117,0.014298
2232.6754,0.014375
2234.5390,0.014545
2236.4027,0.014473
2238.2664,0.015023
2240.1300,0.015759
2241.9937,0.015387
2243.8574,0.015734
2245.7210,0.015405
2247.5847,0.014711
2249.4484,0.014828
2251.3121,0.015580
2253.1757,0.015959
2255.0394,0.016269
2256.9031,0.016447
2258.7667,0.016586
2260.6304,0.016355
2262.4941,0.016379
2264.3577,0.016449
2266.2214,0.017003
2268.0851,0.017577
2269.9487,0.017571
2271.8124,0.017246
2273.6761,0.017510
2275.5397,0.018087
2277.4034,0.018728
2279.2671,0.018970
2281.1308,0.019007
2282.9944,0.019054
2284.8581,0.019085
2286.7218,0.019022
2288.5854,0.019177
2290.4491,0.019461
2292.3128,0.019498
2294.1764,0.019222
2296.0401,0.019345
2297.9038,0.019651
2299.7674,0.019770
2301.6311,0.019834
2303.4948,0.019789
2305.3585,0.019683
2307.2221,0.019773
2309.0858,0.019865
2310.9495,0.019948
2312.8131,0.020090
2314.6768,0.020077
2316.5405,0.019811
2318.4041,0.019943
2320.2678,0.020022
2322.1315,0.020226
2323.9951,0.020163
2325.8588,0.019806
2327.7225,0.019500
2329.5861,0.019475
2331.4498,0.019130
2333.3135,0.018688
2335.1772,0.018773
2337.0408,0.018981
2338.9045,0.019040
2340.7682,0.019195
2342.6318,0.019133
2344.4955,0.018893
2346.3592,0.018914
2348.2228,0.019016
2350.0865,0.019035
2351.9502,0.019316
2353.8138,0.019299
2355.6775,0.019022
2357.5412,0.018869
2359.4049,0.018705
2361.2685,0.018634
2363.1322,0.018740
2364.9959,0.018424
2366.8595,0.018464
2368.7232,0.019001
2370.5869,0.019422
2372.4505,0.019547
2374.3142,0.019607
2376.1779,0.019704
2378.0415,0.019617
2379.9052,0.019823
2381.7689,0.019848
2383.6325,0.019733
2385.4962,0.019517
2387.3599,0.019765
2389.2236,0.019969
2391.0872,0.020023
2392.9509,0.020225
2394.8146,0.020138
2396.6782,0.020154
2398.5419,0.019997
2400.4056,0.020014
2402.2692,0.019828
2404.1329,0.019939
2405.9966,0.020118
2407.8602,0.020087
2409.7239,0.020128
2411.5876,0.020325
2413.4512,0.020567
2415.3149,0.020610
2417.1786,0.020267
2419.0423,0.020340
2420.9059,0.020847
2422.7696,0.020891
2424.6333,0.020806
2426.4969,0.020969
2428.3606,0.021162
2430.2243,0.021154
2432.0879,0.021009
2433.9516,0.021007
2435.8153,0.020980
2437.6789,0.021103
2439.5426,0.021199
2441.4063,0.020791
2443.2700,0.020697
2445.1336,0.020916
2446.9973,0.020832
2448.8610,0.020792
2450.7246,0.020999
2452.5883,0.021245
2454.4520,0.021161
2456.3156,0.021051
2458.1793,0.021302
2460.0430,0.021370
2461.9066,0.020979
2463.7703,0.020836
2465.6340,0.020778
2467.4976,0.020661
2469.3613,0.020770
2471.2250,0.020849
2473.0887,0.020834
2474.9523,0.020608
2476.8160,0.020543
2478.6797,0.020872
2480.5433,0.021097
2482.4070,0.021119
2484.2707,0.021087
2486.1343,0.021052
2487.9980,0.021447
2489.8617,0.021960
2491.7253,0.021937
2493.5890,0.022165
2495.4527,0.022291
2497.3164,0.022164
2499.1800,0.021950
2501.0437,0.021905
2502.9074,0.022115
2504.7710,0.022216
2506.6347,0.022248
2508.4984,0.022655
2510.3620,0.022702
2512.2257,0.022391
2514.0894,0.022494
2515.9530,0.022751
2517.8167,0.022611
2519.6804,0.022713
2521.5440,0.023189
2523.4077,0.023220
2525.2714,0.022822
2527.1351,0.022807
