Wavenumber,Intensity
650.4205,0.254885
652.2841,0.246294
654.1478,0.238727
656.0115,0.236750
657.8751,0.237105
659.7388,0.234132
661.6025,0.231122
663.4661,0.229710
665.3298,0.227745
667.1935,0.227459
669.0571,0.228505
670.9208,0.224415
672.7845,0.221745
674.6481,0.222168
676.5118,0.222494
678.3755,0.220064
680.2392,0.220008
682.1028,0.220692
683.9665,0.218472
685.8302,0.217252
687.6938,0.217334
689.5575,0.216902
691.4212,0.217234
693.2848,0.217100
695.1485,0.218076
697.0122,0.219791
698.8758,0.221716
700.7395,0.223122
702.6032,0.223189
704.4669,0.219954
706.3305,0.214070
708.1942,0.205052
710.0579,0.194322
711.9215,0.183968
713.7852,0.173990
715.6489,0.164978
717.5125,0.158047
719.3762,0.151332
721.2399,0.144622
723.1035,0.138671
724.9672,0.133548
726.8309,0.128470
728.6945,0.123611
730.5582,0.119197
732.4219,0.114673
734.2856,0.110234
736.1492,0.106293
738.0129,0.103675
739.8766,0.104360
741.7402,0.107372
743.6039,0.110188
745.4676,0.111061
747.3312,0.110738
749.1949,0.109954
751.0586,0.108460
752.9222,0.107109
754.7859,0.106277
756.6496,0.105220
758.5132,0.104193
760.3769,0.103604
762.2406,0.102982
764.1043,0.102127
765.9679,0.101758
767.8316,0.101404
769.6953,0.101163
771.5589,0.101280
773.4226,0.101747
775.2863,0.102261
777.1499,0.103106
779.0136,0.104334
780.8773,0.105952
782.7409,0.107739
784.6046,0.109407
786.4683,0.111235
788.3320,0.113314
790.1956,0.115479
792.0593,0.117962
793.9230,0.120544
795.7866,0.123135
797.6503,0.125790
799.5140,0.128171
801.3776,0.129737
803.2413,0.130599
805.1050,0.130145
806.9686,0.128369
808.8323,0.125998
810.6960,0.123130
812.5596,0.119337
814.4233,0.115525
816.2870,0.112087
818.1507,0.108263
820.0143,0.104609
821.8780,0.102345
823.7417,0.101385
825.6053,0.101816
827.4690,0.103863
829.3327,0.104968
831.1963,0.098295
833.0600,0.083959
834.9237,0.071724
836.7873,0.066073
838.6510,0.064212
840.5147,0.063529
842.3784,0.063053
844.2420,0.062717
846.1057,0.062644
847.9694,0.062664
849.8330,0.062684
851.6967,0.062983
853.5604,0.063509
855.4240,0.064042
857.2877,0.064207
859.1514,0.063566
861.0150,0.062495
862.8787,0.061807
864.7424,0.061411
866.6060,0.060935
868.4697,0.060607
870.3334,0.060483
872.1971,0.060465
874.0607,0.060767
875.9244,0.061148
877.7881,0.061450
879.6517,0.061785
881.5154,0.062154
883.3791,0.062616
885.2427,0.063167
887.1064,0.063726
888.9701,0.064394
890.8337,0.065211
892.6974,0.066131
894.5611,0.067118
896.4247,0.068546
898.2884,0.070552
900.1521,0.072858
902.0158,0.075545
903.8794,0.078997
905.7431,0.083382
907.6068,0.088772
909.4704,0.095386
911.3341,0.103812
913.1978,0.113702
915.0614,0.118176
916.9251,0.107787
918.7888,0.087729
920.6524,0.072143
922.5161,0.065245
924.3798,0.063375
926.2435,0.063355
928.1071,0.063859
929.9708,0.064775
931.8345,0.066031
933.6981,0.067349
935.5618,0.068468
937.4255,0.069076
939.2891,0.069275
941.1528,0.069668
943.0165,0.070481
944.8801,0.071500
946.7438,0.072478
948.6075,0.073573
950.4711,0.074936
952.3348,0.076343
954.1985,0.077673
956.0622,0.079105
957.9258,0.080552
959.7895,0.081817
961.6532,0.083066
963.5168,0.084729
965.3805,0.086963
967.2442,0.089755
969.1078,0.093128
970.9715,0.096816
972.8352,0.101145
974.6988,0.107876
976.5625,0.119670
978.4262,0.140139
980.2899,0.169017
982.1535,0.181880
984.0172,0.151294
985.8809,0.108650
987.7445,0.088818
989.6082,0.085560
991.4719,0.086247
993.3355,0.087827
995.1992,0.089767
997.0629,0.091854
998.9265,0.093980
1000.7902,0.095966
1002.6539,0.097710
1004.5175,0.099395
1006.3812,0.101353
1008.2449,0.103424
1010.1086,0.104970
1011.9722,0.105779
1013.8359,0.106041
1015.6996,0.105835
1017.5632,0.105317
1019.4269,0.104931
1021.2906,0.104707
1023.1542,0.104592
1025.0179,0.104792
1026.8816,0.105423
1028.7452,0.106212
1030.6089,0.106869
1032.4726,0.107641
1034.3362,0.108796
1036.1999,0.110409
1038.0636,0.112763
1039.9273,0.115926
1041.7909,0.119942
1043.6546,0.124582
1045.5183,0.129318
1047.3819,0.133190
1049.2456,0.133453
1051.1093,0.126982
1052.9729,0.115196
1054.8366,0.103544
1056.7003,0.095659
1058.5639,0.091694
1060.4276,0.090526
1062.2913,0.090637
1064.1550,0.091288
1066.0186,0.092425
1067.8823,0.093956
1069.7460,0.095928
1071.6096,0.098160
1073.4733,0.100298
1075.3370,0.102459
1077.2006,0.104769
1079.0643,0.107324
1080.9280,0.110168
1082.7916,0.113368
1084.6553,0.117032
1086.5190,0.121082
1088.3826,0.125515
1090.2463,0.130723
1092.1100,0.136808
1093.9737,0.143528
1095.8373,0.151044
1097.7010,0.159517
1099.5647,0.168566
1101.4283,0.177775
1103.2920,0.186136
1105.1557,0.191922
1107.0193,0.193038
1108.8830,0.187546
1110.7467,0.175413
1112.6103,0.159259
1114.4740,0.142439
1116.3377,0.127210
1118.2014,0.114776
1120.0650,0.105771
1121.9287,0.099835
1123.7924,0.095916
1125.6560,0.092805
1127.5197,0.089782
1129.3834,0.086740
1131.2470,0.083909
1133.1107,0.081497
1134.9744,0.079694
1136.8380,0.078500
1138.7017,0.077818
1140.5654,0.077524
1142.4290,0.077513
1144.2927,0.077473
1146.1564,0.077212
1148.0201,0.076922
1149.8837,0.077019
1151.7474,0.077558
1153.6111,0.078430
1155.4747,0.079602
1157.3384,0.080930
1159.2021,0.082129
1161.0657,0.083420
1162.9294,0.085371
1164.7931,0.088358
1166.6567,0.092281
1168.5204,0.097038
1170.3841,0.102192
1172.2477,0.105915
1174.1114,0.105665
1175.9751,0.100790
1177.8388,0.093739
1179.7024,0.087763
1181.5661,0.084204
1183.4298,0.082772
1185.2934,0.082581
1187.1571,0.082927
1189.0208,0.083274
1190.8844,0.083226
1192.7481,0.082661
1194.6118,0.082036
1196.4754,0.081818
1198.3391,0.081947
1200.2028,0.082140
1202.0665,0.082389
1203.9301,0.082611
1205.7938,0.082871
1207.6575,0.083232
1209.5211,0.083695
1211.3848,0.084201
1213.2485,0.084713
1215.1121,0.085219
1216.9758,0.085805
1218.8395,0.086426
1220.7031,0.087048
1222.5668,0.087672
1224.4305,0.088279
1226.2941,0.088754
1228.1578,0.089167
1230.0215,0.089663
1231.8852,0.090308
1233.7488,0.091035
1235.6125,0.091792
1237.4762,0.092573
1239.3398,0.093476
1241.2035,0.094240
1243.0672,0.094830
1244.9308,0.095422
1246.7945,0.096171
1248.6582,0.097026
1250.5218,0.098000
1252.3855,0.099009
1254.2492,0.100085
1256.1129,0.101171
1257.9765,0.102332
1259.8402,0.103791
1261.7039,0.105475
1263.5675,0.107031
1265.4312,0.108337
1267.2949,0.109027
1269.1585,0.109015
1271.0222,0.108757
1272.8859,0.108707
1274.7495,0.109145
1276.6132,0.110145
1278.4769,0.111702
1280.3405,0.113835
1282.2042,0.116399
1284.0679,0.119148
1285.9316,0.121979
1287.7952,0.125097
1289.6589,0.128579
1291.5226,0.132545
1293.3862,0.137144
1295.2499,0.142842
1297.1136,0.150013
1298.9772,0.158732
1300.8409,0.169363
1302.7046,0.180957
1304.5682,0.189502
1306.4319,0.189062
1308.2956,0.173933
1310.1592,0.145906
1312.0229,0.117424
1313.8866,0.098978
1315.7503,0.092056
1317.6139,0.091834
1319.4776,0.094517
1321.3413,0.097768
1323.2049,0.100920
1325.0686,0.104368
1326.9323,0.107800
1328.7959,0.111178
1330.6596,0.114462
1332.5233,0.116933
1334.3869,0.118241
1336.2506,0.119326
1338.1143,0.122035
1339.9780,0.125541
1341.8416,0.126108
1343.7053,0.125238
1345.5690,0.125500
1347.4326,0.126884
1349.2963,0.128897
1351.1600,0.131047
1353.0236,0.133261
1354.8873,0.136327
1356.7510,0.139504
1358.6146,0.142054
1360.4783,0.145635
1362.3420,0.152077
1364.2056,0.157559
1366.0693,0.159865
1367.9330,0.164052
1369.7967,0.169397
1371.6603,0.173401
1373.5240,0.179954
1375.3877,0.188030
1377.2513,0.192711
1379.1150,0.198382
1380.9787,0.206218
1382.8423,0.213921
1384.7060,0.222379
1386.5697,0.234541
1388.4333,0.248834
1390.2970,0.255491
1392.1607,0.257767
1394.0244,0.258716
1395.8880,0.252728
1397.7517,0.241437
1399.6154,0.227604
1401.4790,0.214321
1403.3427,0.202268
1405.2064,0.184525
1407.0700,0.161011
1408.9337,0.137892
1410.7974,0.116769
1412.6610,0.102202
1414.5247,0.095703
1416.3884,0.095722
1418.2520,0.103312
1420.1157,0.115850
1421.9794,0.121182
1423.8431,0.117511
1425.7067,0.104889
1427.5704,0.091841
1429.4341,0.083480
1431.2977,0.080360
1433.1614,0.079978
1435.0251,0.082007
1436.8887,0.087439
1438.7524,0.091103
1440.6161,0.091676
1442.4797,0.093255
1444.3434,0.095025
1446.2071,0.096506
1448.0707,0.097742
1449.9344,0.096068
1451.7981,0.091855
1453.6618,0.087289
1455.5254,0.086559
1457.3891,0.092819
1459.2528,0.097272
1461.1164,0.095216
1462.9801,0.095223
1464.8438,0.096441
1466.7074,0.095609
1468.5711,0.092167
1470.4348,0.090452
1472.2984,0.091771
1474.1621,0.094182
1476.0258,0.093840
1477.8895,0.093263
1479.7531,0.093163
1481.6168,0.093941
1483.4805,0.094487
1485.3441,0.094374
1487.2078,0.095394
1489.0715,0.099340
1490.9351,0.102293
1492.7988,0.101156
1494.6625,0.100297
1496.5261,0.103441
1498.3898,0.107543
1500.2535,0.107750
1502.1171,0.105815
1503.9808,0.104243
1505.8445,0.106712
1507.7082,0.118475
1509.5718,0.117477
1511.4355,0.115162
1513.2992,0.114835
1515.1628,0.115911
1517.0265,0.117924
1518.8902,0.119801
1520.7538,0.122440
1522.6175,0.128205
1524.4812,0.128774
1526.3448,0.129970
1528.2085,0.131661
1530.0722,0.130924
1531.9359,0.131937
1533.7995,0.135656
1535.6632,0.135483
1537.5269,0.133582
1539.3905,0.137668
1541.2542,0.150638
1543.1179,0.152227
1544.9815,0.153562
1546.8452,0.154099
1548.7089,0.155280
1550.5725,0.158361
1552.4362,0.160697
1554.2999,0.161184
1556.1635,0.163697
1558.0272,0.171215
1559.8909,0.193393
1561.7546,0.187993
1563.6182,0.184704
1565.4819,0.186860
1567.3456,0.190568
1569.2092,0.196516
1571.0729,0.203754
1572.9366,0.203947
1574.8002,0.207700
1576.6639,0.219287
1578.5276,0.225160
1580.3912,0.225337
1582.2549,0.228576
1584.1186,0.231971
1585.9822,0.234347
1587.8459,0.235726
1589.7096,0.236668
1591.5733,0.236576
1593.4369,0.235594
1595.3006,0.233827
1597.1643,0.231227
1599.0279,0.227665
1600.8916,0.224012
1602.7553,0.220453
1604.6189,0.217164
1606.4826,0.214255
1608.3463,0.211573
1610.2099,0.208762
1612.0736,0.204620
1613.9373,0.199429
1615.8010,0.193501
1617.6646,0.184515
1619.5283,0.175777
1621.3920,0.168511
1623.2556,0.159217
1625.1193,0.148765
1626.9830,0.139235
1628.8466,0.126990
1630.7103,0.114993
1632.5740,0.104744
1634.4376,0.094868
1636.3013,0.083806
1638.1650,0.078611
1640.0286,0.077301
1641.8923,0.076008
1643.7560,0.076109
1645.6197,0.077781
1647.4833,0.081292
1649.3470,0.083120
1651.2107,0.085293
1653.0743,0.092338
1654.9380,0.100141
1656.8017,0.098404
1658.6653,0.098238
1660.5290,0.098687
1662.3927,0.098263
1664.2563,0.096392
1666.1200,0.094182
1667.9837,0.091974
1669.8474,0.090431
1671.7110,0.089336
1673.5747,0.090253
1675.4384,0.093284
1677.3020,0.097334
1679.1657,0.099791
1681.0294,0.104382
1682.8930,0.111150
1684.7567,0.120549
1686.6204,0.124288
1688.4840,0.122021
1690.3477,0.119990
1692.2114,0.116251
1694.0750,0.112025
1695.9387,0.106856
1697.8024,0.102278
1699.6661,0.098230
1701.5297,0.088454
1703.3934,0.081554
1705.2571,0.071623
1707.1207,0.059649
1708.9844,0.051493
1710.8481,0.045543
1712.7117,0.040685
1714.5754,0.037267
1716.4391,0.034789
1718.3027,0.033237
1720.1664,0.031957
1722.0301,0.031060
1723.8937,0.028759
1725.7574,0.026411
1727.6211,0.023891
1729.4848,0.021779
1731.3484,0.019722
1733.2121,0.018825
1735.0758,0.016445
1736.9394,0.016756
1738.8031,0.016071
1740.6668,0.015762
1742.5304,0.015223
1744.3941,0.014796
1746.2578,0.014566
1748.1214,0.014456
1749.9851,0.014119
1751.8488,0.013809
1753.7125,0.013472
1755.5761,0.013625
1757.4398,0.013153
1759.3035,0.013437
1761.1671,0.013134
1763.0308,0.013202
1764.8945,0.012929
1766.7581,0.012913
1768.6218,0.012588
1770.4855,0.012992
1772.3491,0.012290
1774.2128,0.012647
1776.0765,0.012381
1777.9401,0.012626
1779.8038,0.012638
1781.6675,0.012865
1783.5312,0.013107
1785.3948,0.012973
1787.2585,0.012763
1789.1222,0.012811
1790.9858,0.012909
1792.8495,0.012957
1794.7132,0.013041
1796.5768,0.013026
1798.4405,0.013106
1800.3042,0.013381
1802.1678,0.013312
1804.0315,0.013390
1805.8952,0.013513
1807.7589,0.013667
1809.6225,0.013624
1811.4862,0.013702
1813.3499,0.013628
1815.2135,0.013663
1817.0772,0.013523
1818.9409,0.013637
1820.8045,0.013527
1822.6682,0.013581
1824.5319,0.013360
1826.3955,0.013519
1828.2592,0.013583
1830.1229,0.013143
1831.9865,0.013052
1833.8502,0.013171
1835.7139,0.013352
1837.5776,0.013354
1839.4412,0.013115
1841.3049,0.013222
1843.1686,0.013167
1845.0322,0.013108
1846.8959,0.013146
1848.7596,0.013426
1850.6232,0.013703
1852.4869,0.013865
1854.3506,0.013781
1856.2142,0.013936
1858.0779,0.013847
1859.9416,0.013967
1861.8052,0.013765
1863.6689,0.013953
1865.5326,0.013971
1867.3963,0.014028
1869.2599,0.013936
1871.1236,0.013845
1872.9873,0.013492
1874.8509,0.013722
1876.7146,0.013689
1878.5783,0.013987
1880.4419,0.013997
1882.3056,0.014044
1884.1693,0.014003
1886.0329,0.014083
1887.8966,0.014258
1889.7603,0.014163
1891.6240,0.013794
1893.4876,0.013863
1895.3513,0.013829
1897.2150,0.013975
1899.0786,0.014124
1900.9423,0.014285
1902.8060,0.013909
1904.6696,0.014250
1906.5333,0.014179
1908.3970,0.014216
1910.2606,0.014001
1912.1243,0.014149
1913.9880,0.014146
1915.8516,0.014455
1917.7153,0.014876
1919.5790,0.015224
1921.4427,0.014466
1923.3063,0.013983
1925.1700,0.013894
1927.0337,0.014330
1928.8973,0.014600
1930.7610,0.014678
1932.6247,0.014361
1934.4883,0.014376
1936.3520,0.014359
1938.2157,0.014990
1940.0793,0.014812
1941.9430,0.013813
1943.8067,0.013013
1945.6704,0.013150
1947.5340,0.011717
1949.3977,0.011520
1951.2614,0.012262
1953.1250,0.013025
1954.9887,0.013181
1956.8524,0.013396
1958.7160,0.012189
1960.5797,0.011500
1962.4434,0.010316
1964.3070,0.009530
1966.1707,0.007931
1968.0344,0.008238
1969.8980,0.007649
1971.7617,0.007472
1973.6254,0.007893
1975.4891,0.009458
1977.3527,0.009114
1979.2164,0.009175
1981.0801,0.009615
1982.9437,0.010468
1984.8074,0.010553
1986.6711,0.011034
1988.5347,0.011354
1990.3984,0.012368
1992.2621,0.011403
1994.1257,0.010599
1995.9894,0.010415
1997.8531,0.011927
1999.7167,0.012231
2001.5804,0.012148
2003.4441,0.012022
2005.3078,0.011308
2007.1714,0.009596
2009.0351,0.010418
2010.8988,0.010832
2012.7624,0.010655
2014.6261,0.009054
2016.4898,0.009432
2018.3534,0.009647
2020.2171,0.009857
2022.0808,0.009859
2023.9444,0.009982
2025.8081,0.009314
2027.6718,0.009247
2029.5355,0.009507
2031.3991,0.009354
2033.2628,0.007479
2035.1265,0.008650
2036.9901,0.010487
2038.8538,0.011229
2040.7175,0.011593
2042.5811,0.012171
2044.4448,0.011325
2046.3085,0.011458
2048.1721,0.011881
2050.0358,0.014106
2051.8995,0.014915
2053.7631,0.014668
2055.6268,0.014255
2057.4905,0.015124
2059.3542,0.015418
2061.2178,0.015231
2063.0815,0.016275
2064.9452,0.017828
2066.8088,0.016820
2068.6725,0.016183
2070.5362,0.015761
2072.3998,0.016551
2074.2635,0.017079
2076.1272,0.017162
2077.9908,0.017510
2079.8545,0.018067
2081.7182,0.017849
2083.5819,0.017624
2085.4455,0.018028
2087.3092,0.018759
2089.1729,0.019132
2091.0365,0.018751
2092.9002,0.017819
2094.7639,0.017577
2096.6275,0.017965
2098.4912,0.018650
2100.3549,0.018673
2102.2185,0.018446
2104.0822,0.018369
2105.9459,0.018871
2107.8095,0.019158
2109.6732,0.019137
2111.5369,0.018825
2113.4006,0.018983
2115.2642,0.018918
2117.1279,0.019304
2118.9916,0.019235
2120.8552,0.019584
2122.7189,0.019617
2124.5826,0.019312
2126.4462,0.018871
2128.3099,0.018856
2130.1736,0.018757
2132.0372,0.019030
2133.9009,0.018734
2135.7646,0.018050
2137.6282,0.017248
2139.4919,0.017353
2141.3556,0.017136
2143.2193,0.017197
2145.0829,0.016444
2146.9466,0.016473
2148.8103,0.016278
2150.6739,0.016077
2152.5376,0.013672
2154.4013,0.013403
2156.2649,0.013272
2158.1286,0.011895
2159.9923,0.010748
2161.8559,0.012208
2163.7196,0.013296
2165.5833,0.013110
2167.4470,0.012958
2169.3106,0.012493
2171.1743,0.011853
2173.0380,0.013222
2174.9016,0.013639
2176.7653,0.014336
2178.6290,0.014859
2180.4926,0.015182
2182.3563,0.015751
2184.2200,0.015785
2186.0836,0.015929
2187.9473,0.016781
2189.8110,0.016691
2191.6746,0.017352
2193.5383,0.016825
2195.4020,0.017305
2197.2657,0.017534
2199.1293,0.016977
2200.9930,0.016998
2202.8567,0.017484
2204.7203,0.017025
2206.5840,0.017383
2208.4477,0.017991
2210.3113,0.018764
2212.1750,0.018862
2214.0387,0.018855
2215.9023,0.018480
2217.7660,0.019528
2219.6297,0.020412
2221.4934,0.020097
2223.3570,0.019643
2225.2207,0.020124
2227.0844,0.020271
2228.9480,0.020696
2230.8117,0.020840
2232.6754,0.021185
2234.5390,0.021719
2236.4027,0.022130
2238.2664,0.021998
2240.1300,0.021573
2241.9937,0.021589
2243.8574,0.022439
2245.7210,0.023061
2247.5847,0.023440
2249.4484,0.023034
2251.3121,0.022736
2253.1757,0.023002
2255.0394,0.023130
2256.9031,0.023284
2258.7667,0.023672
2260.6304,0.023230
2262.4941,0.023018
2264.3577,0.023052
2266.2214,0.023807
2268.0851,0.024247
2269.9487,0.024745
2271.8124,0.025281
2273.6761,0.025638
2275.5397,0.026088
2277.4034,0.026627
2279.2671,0.026937
2281.1308,0.026998
2282.9944,0.026917
2284.8581,0.027441
2286.7218,0.027681
2288.5854,0.027757
2290.4491,0.027876
2292.3128,0.027664
2294.1764,0.027633
2296.0401,0.027661
2297.9038,0.027821
2299.7674,0.027906
2301.6311,0.028004
2303.4948,0.028501
2305.3585,0.028602
2307.2221,0.028447
2309.0858,0.028546
2310.9495,0.028799
2312.8131,0.028637
2314.6768,0.028296
2316.5405,0.028093
2318.4041,0.028292
2320.2678,0.028759
2322.1315,0.029235
2323.9951,0.029209
2325.8588,0.028584
2327.7225,0.027861
2329.5861,0.027694
2331.4498,0.027548
2333.3135,0.027428
2335.1772,0.027540
2337.0408,0.027583
2338.9045,0.027547
2340.7682,0.027553
2342.6318,0.027534
2344.4955,0.027716
2346.3592,0.027807
2348.2228,0.027506
2350.0865,0.027094
2351.9502,0.027039
2353.8138,0.027122
2355.6775,0.027261
2357.5412,0.027244
2359.4049,0.026842
2361.2685,0.026805
2363.1322,0.027270
2364.9959,0.027373
2366.8595,0.027454
2368.7232,0.027681
2370.5869,0.028641
2372.4505,0.029049
2374.3142,0.028611
2376.1779,0.028587
2378.0415,0.028785
2379.9052,0.028665
2381.7689,0.028628
2383.6325,0.028595
2385.4962,0.028538
2387.3599,0.028441
2389.2236,0.028505
2391.0872,0.028691
2392.9509,0.028604
2394.8146,0.028492
2396.6782,0.028866
2398.5419,0.029071
2400.4056,0.029133
2402.2692,0.029095
2404.1329,0.029238
2405.9966,0.029222
2407.8602,0.029113
2409.7239,0.029455
2411.5876,0.029638
2413.4512,0.029705
2415.3149,0.029907
2417.1786,0.029950
2419.0423,0.029768
2420.9059,0.029734
2422.7696,0.029932
2424.6333,0.030102
2426.4969,0.030078
2428.3606,0.030289
2430.2243,0.030533
2432.0879,0.030451
2433.9516,0.030603
2435.8153,0.030520
2437.6789,0.030360
2439.5426,0.030592
2441.4063,0.030750
2443.2700,0.031014
2445.1336,0.030932
2446.9973,0.030848
2448.8610,0.030842
2450.7246,0.030578
2452.5883,0.030154
2454.4520,0.030190
2456.3156,0.030629
2458.1793,0.030882
2460.0430,0.030478
2461.9066,0.029992
2463.7703,0.029889
2465.6340,0.029860
2467.4976,0.030158
2469.3613,0.030694
2471.2250,0.030944
2473.0887,0.030829
2474.9523,0.030607
2476.8160,0.030613
2478.6797,0.030497
2480.5433,0.030177
2482.4070,0.030226
2484.2707,0.030760
2486.1343,0.031140
2487.9980,0.031251
2489.8617,0.031501
2491.7253,0.031890
2493.5890,0.031903
2495.4527,0.031955
2497.3164,0.032165
2499.1800,0.032343
2501.0437,0.032176
2502.9074,0.031990
2504.7710,0.032115
2506.6347,0.032388
2508.4984,0.032410
2510.3620,0.032235
2512.2257,0.032208
2514.0894,0.032563
2515.9530,0.032795
2517.8167,0.033060
2519.6804,0.033479
2521.5440,0.033367
2523.4077,0.033232
2525.2714,0.033389
2527.1351,0.033410
