Wavenumber,Intensity
650.4205,0.201643
652.2841,0.194797
654.1478,0.192076
656.0115,0.189404
657.8751,0.185034
659.7388,0.180520
661.6025,0.178781
663.4661,0.175909
665.3298,0.173521
667.1935,0.175704
669.0571,0.177558
670.9208,0.174026
672.7845,0.174087
674.6481,0.173988
676.5118,0.173361
678.3755,0.172949
680.2392,0.172922
682.1028,0.173442
683.9665,0.174532
685.8302,0.175506
687.6938,0.177325
689.5575,0.177164
691.4212,0.177482
693.2848,0.178288
695.1485,0.178693
697.0122,0.179061
698.8758,0.180480
700.7395,0.181412
702.6032,0.181587
704.4669,0.178509
706.3305,0.172444
708.1942,0.164789
710.0579,0.157252
711.9215,0.148371
713.7852,0.139848
715.6489,0.132872
717.5125,0.126825
719.3762,0.121132
721.2399,0.116037
723.1035,0.111870
724.9672,0.108361
726.8309,0.104419
728.6945,0.100525
730.5582,0.096806
732.4219,0.094083
734.2856,0.091567
736.1492,0.089195
738.0129,0.087317
739.8766,0.087413
741.7402,0.090594
743.6039,0.093859
745.4676,0.094489
747.3312,0.094366
749.1949,0.093953
751.0586,0.092822
752.9222,0.091682
754.7859,0.091021
756.6496,0.090246
758.5132,0.089269
760.3769,0.088521
762.2406,0.087839
764.1043,0.087671
765.9679,0.087550
767.8316,0.086603
769.6953,0.085805
771.5589,0.085680
773.4226,0.086085
775.2863,0.086345
777.1499,0.086668
779.0136,0.087320
780.8773,0.088443
782.7409,0.089611
784.6046,0.090900
786.4683,0.092270
788.3320,0.093705
790.1956,0.095379
792.0593,0.097482
793.9230,0.099279
795.7866,0.100974
797.6503,0.102954
799.5140,0.104622
801.3776,0.105513
803.2413,0.105859
805.1050,0.105672
806.9686,0.104688
808.8323,0.102861
810.6960,0.100491
812.5596,0.097691
814.4233,0.094710
816.2870,0.091571
818.1507,0.088789
820.0143,0.086320
821.8780,0.084529
823.7417,0.083703
825.6053,0.084041
827.4690,0.085722
829.3327,0.086813
831.1963,0.082088
833.0600,0.071043
834.9237,0.061397
836.7873,0.056967
838.6510,0.055487
840.5147,0.055104
842.3784,0.054636
844.2420,0.053866
846.1057,0.053535
847.9694,0.053450
849.8330,0.053208
851.6967,0.052864
853.5604,0.052540
855.4240,0.052411
857.2877,0.052205
859.1514,0.051859
861.0150,0.051575
862.8787,0.051261
864.7424,0.051055
866.6060,0.050880
868.4697,0.050532
870.3334,0.050274
872.1971,0.050323
874.0607,0.050481
875.9244,0.050531
877.7881,0.050800
879.6517,0.051015
881.5154,0.051206
883.3791,0.051748
885.2427,0.052375
887.1064,0.052939
888.9701,0.053616
890.8337,0.054346
892.6974,0.055060
894.5611,0.055898
896.4247,0.056871
898.2884,0.058035
900.1521,0.059588
902.0158,0.061533
903.8794,0.064141
905.7431,0.067734
907.6068,0.072063
909.4704,0.077072
911.3341,0.083566
913.1978,0.091809
915.0614,0.096415
916.9251,0.089163
918.7888,0.073762
920.6524,0.061497
922.5161,0.055785
924.3798,0.053909
926.2435,0.053554
928.1071,0.053772
929.9708,0.054151
931.8345,0.054408
933.6981,0.054683
935.5618,0.055104
937.4255,0.055531
939.2891,0.055917
941.1528,0.056232
943.0165,0.056638
944.8801,0.057176
946.7438,0.057843
948.6075,0.058661
950.4711,0.059740
952.3348,0.060878
954.1985,0.061901
956.0622,0.063198
957.9258,0.064772
959.7895,0.066305
961.6532,0.067810
963.5168,0.069570
965.3805,0.071733
967.2442,0.074378
969.1078,0.077455
970.9715,0.080650
972.8352,0.084582
974.6988,0.090721
976.5625,0.100666
978.4262,0.117172
980.2899,0.139633
982.1535,0.148471
984.0172,0.123737
985.8809,0.090765
987.7445,0.075555
989.6082,0.072875
991.4719,0.073151
993.3355,0.073789
995.1992,0.074510
997.0629,0.075356
998.9265,0.076114
1000.7902,0.076801
1002.6539,0.077375
1004.5175,0.078000
1006.3812,0.078742
1008.2449,0.079476
1010.1086,0.080325
1011.9722,0.081178
1013.8359,0.081947
1015.6996,0.082677
1017.5632,0.083259
1019.4269,0.083766
1021.2906,0.084388
1023.1542,0.085018
1025.0179,0.085730
1026.8816,0.086615
1028.7452,0.087509
1030.6089,0.088363
1032.4726,0.089387
1034.3362,0.090878
1036.1999,0.092736
1038.0636,0.094736
1039.9273,0.097198
1041.7909,0.100432
1043.6546,0.104038
1045.5183,0.107670
1047.3819,0.110655
1049.2456,0.110685
1051.1093,0.105264
1052.9729,0.095534
1054.8366,0.086089
1056.7003,0.079955
1058.5639,0.076981
1060.4276,0.076022
1062.2913,0.075947
1064.1550,0.076242
1066.0186,0.077186
1067.8823,0.078835
1069.7460,0.080910
1071.6096,0.083275
1073.4733,0.085734
1075.3370,0.087968
1077.2006,0.089867
1079.0643,0.091688
1080.9280,0.093539
1082.7916,0.095413
1084.6553,0.097477
1086.5190,0.099949
1088.3826,0.102951
1090.2463,0.106381
1092.1100,0.110359
1093.9737,0.115270
1095.8373,0.120920
1097.7010,0.127176
1099.5647,0.134097
1101.4283,0.141192
1103.2920,0.147653
1105.1557,0.152445
1107.0193,0.153892
1108.8830,0.150118
1110.7467,0.141167
1112.6103,0.129032
1114.4740,0.116157
1116.3377,0.104433
1118.2014,0.094621
1120.0650,0.087156
1121.9287,0.082001
1123.7924,0.078562
1125.6560,0.076038
1127.5197,0.073695
1129.3834,0.071474
1131.2470,0.069566
1133.1107,0.068005
1134.9744,0.066786
1136.8380,0.065976
1138.7017,0.065668
1140.5654,0.065789
1142.4290,0.066149
1144.2927,0.066473
1146.1564,0.066725
1148.0201,0.067000
1149.8837,0.067193
1151.7474,0.067282
1153.6111,0.067410
1155.4747,0.067647
1157.3384,0.067886
1159.2021,0.068171
1161.0657,0.068730
1162.9294,0.069744
1164.7931,0.071326
1166.6567,0.073694
1168.5204,0.076990
1170.3841,0.080650
1172.2477,0.083208
1174.1114,0.082860
1175.9751,0.078989
1177.8388,0.073428
1179.7024,0.068630
1181.5661,0.065716
1183.4298,0.064529
1185.2934,0.064316
1187.1571,0.064434
1189.0208,0.064492
1190.8844,0.064516
1192.7481,0.064567
1194.6118,0.064566
1196.4754,0.064696
1198.3391,0.065016
1200.2028,0.065344
1202.0665,0.065656
1203.9301,0.065991
1205.7938,0.066366
1207.6575,0.066795
1209.5211,0.067146
1211.3848,0.067488
1213.2485,0.067906
1215.1121,0.068335
1216.9758,0.068761
1218.8395,0.069273
1220.7031,0.069887
1222.5668,0.070440
1224.4305,0.070948
1226.2941,0.071438
1228.1578,0.071869
1230.0215,0.072374
1231.8852,0.072937
1233.7488,0.073446
1235.6125,0.073949
1237.4762,0.074576
1239.3398,0.075259
1241.2035,0.075804
1243.0672,0.076354
1244.9308,0.077002
1246.7945,0.077715
1248.6582,0.078497
1250.5218,0.079230
1252.3855,0.079972
1254.2492,0.080784
1256.1129,0.081536
1257.9765,0.082338
1259.8402,0.083467
1261.7039,0.084699
1263.5675,0.085795
1265.4312,0.086874
1267.2949,0.087596
1269.1585,0.087712
1271.0222,0.087619
1272.8859,0.087670
1274.7495,0.087990
1276.6132,0.088724
1278.4769,0.089801
1280.3405,0.091075
1282.2042,0.092716
1284.0679,0.094656
1285.9316,0.096763
1287.7952,0.099250
1289.6589,0.102080
1291.5226,0.105321
1293.3862,0.109195
1295.2499,0.113726
1297.1136,0.119029
1298.9772,0.125355
1300.8409,0.132958
1302.7046,0.141297
1304.5682,0.147819
1306.4319,0.147971
1308.2956,0.137137
1310.1592,0.116243
1312.0229,0.094447
1313.8866,0.080001
1315.7503,0.074324
1317.6139,0.074105
1319.4776,0.076189
1321.3413,0.078737
1323.2049,0.081388
1325.0686,0.084281
1326.9323,0.087176
1328.7959,0.090053
1330.6596,0.092766
1332.5233,0.094894
1334.3869,0.096191
1336.2506,0.097127
1338.1143,0.098918
1339.9780,0.101204
1341.8416,0.101939
1343.7053,0.101925
1345.5690,0.102525
1347.4326,0.103476
1349.2963,0.104773
1351.1600,0.106286
1353.0236,0.108011
1354.8873,0.110377
1356.7510,0.112844
1358.6146,0.114862
1360.4783,0.117596
1362.3420,0.122516
1364.2056,0.126903
1366.0693,0.128872
1367.9330,0.132084
1369.7967,0.136081
1371.6603,0.139097
1373.5240,0.143796
1375.3877,0.149394
1377.2513,0.152804
1379.1150,0.157201
1380.9787,0.163094
1382.8423,0.169060
1384.7060,0.175399
1386.5697,0.183994
1388.4333,0.193878
1390.2970,0.198647
1392.1607,0.200414
1394.0244,0.200800
1395.8880,0.195770
1397.7517,0.186467
1399.6154,0.176251
1401.4790,0.166264
1403.3427,0.156972
1405.2064,0.143421
1407.0700,0.125108
1408.9337,0.106972
1410.7974,0.090675
1412.6610,0.079419
1414.5247,0.074442
1416.3884,0.074515
1418.2520,0.080029
1420.1157,0.089702
1421.9794,0.093801
1423.8431,0.091170
1425.7067,0.081823
1427.5704,0.071887
1429.4341,0.066164
1431.2977,0.064133
1433.1614,0.063908
1435.0251,0.065371
1436.8887,0.069596
1438.7524,0.071945
1440.6161,0.072217
1442.4797,0.073672
1444.3434,0.075127
1446.2071,0.076139
1448.0707,0.076627
1449.9344,0.074815
1451.7981,0.071342
1453.6618,0.067922
1455.5254,0.067130
1457.3891,0.071713
1459.2528,0.073916
1461.1164,0.072280
1462.9801,0.071949
1464.8438,0.072901
1466.7074,0.072287
1468.5711,0.069810
1470.4348,0.068296
1472.2984,0.069361
1474.1621,0.070924
1476.0258,0.070519
1477.8895,0.070204
1479.7531,0.069912
1481.6168,0.070353
1483.4805,0.070543
1485.3441,0.070310
1487.2078,0.071098
1489.0715,0.073531
1490.9351,0.075607
1492.7988,0.074897
1494.6625,0.074506
1496.5261,0.077024
1498.3898,0.079791
1500.2535,0.080159
1502.1171,0.079150
1503.9808,0.078127
1505.8445,0.080750
1507.7082,0.089326
1509.5718,0.088987
1511.4355,0.087676
1513.2992,0.087921
1515.1628,0.088749
1517.0265,0.090764
1518.8902,0.091850
1520.7538,0.093673
1522.6175,0.097574
1524.4812,0.097671
1526.3448,0.098535
1528.2085,0.099654
1530.0722,0.099427
1531.9359,0.100373
1533.7995,0.103537
1535.6632,0.103809
1537.5269,0.102765
1539.3905,0.106930
1541.2542,0.115368
1543.1179,0.116583
1544.9815,0.117754
1546.8452,0.118482
1548.7089,0.119433
1550.5725,0.122119
1552.4362,0.123965
1554.2999,0.125171
1556.1635,0.126855
1558.0272,0.132537
1559.8909,0.147392
1561.7546,0.144451
1563.6182,0.142133
1565.4819,0.144057
1567.3456,0.146630
1569.2092,0.150935
1571.0729,0.155795
1572.9366,0.156265
1574.8002,0.159182
1576.6639,0.167247
1578.5276,0.170803
1580.3912,0.171042
1582.2549,0.173457
1584.1186,0.175906
1585.9822,0.177747
1587.8459,0.178772
1589.7096,0.179395
1591.5733,0.179471
1593.4369,0.178917
1595.3006,0.177563
1597.1643,0.175592
1599.0279,0.173241
1600.8916,0.170866
1602.7553,0.168296
1604.6189,0.165782
1606.4826,0.163620
1608.3463,0.161891
1610.2099,0.159868
1612.0736,0.156540
1613.9373,0.152425
1615.8010,0.148358
1617.6646,0.141980
1619.5283,0.134230
1621.3920,0.128192
1623.2556,0.121564
1625.1193,0.113864
1626.9830,0.106317
1628.8466,0.097196
1630.7103,0.087686
1632.5740,0.079808
1634.4376,0.072671
1636.3013,0.065454
1638.1650,0.061082
1640.0286,0.059557
1641.8923,0.058431
1643.7560,0.058767
1645.6197,0.060903
1647.4833,0.064754
1649.3470,0.066176
1651.2107,0.067297
1653.0743,0.072975
1654.9380,0.079082
1656.8017,0.077710
1658.6653,0.077450
1660.5290,0.077469
1662.3927,0.077224
1664.2563,0.075847
1666.1200,0.073702
1667.9837,0.072056
1669.8474,0.071047
1671.7110,0.070205
1673.5747,0.070564
1675.4384,0.073222
1677.3020,0.076635
1679.1657,0.079138
1681.0294,0.083039
1682.8930,0.087542
1684.7567,0.094928
1686.6204,0.097070
1688.4840,0.095179
1690.3477,0.093326
1692.2114,0.090172
1694.0750,0.086579
1695.9387,0.082978
1697.8024,0.079051
1699.6661,0.076058
1701.5297,0.069458
1703.3934,0.062714
1705.2571,0.055553
1707.1207,0.046518
1708.9844,0.039873
1710.8481,0.035067
1712.7117,0.031338
1714.5754,0.029042
1716.4391,0.027469
1718.3027,0.026670
1720.1664,0.025370
1722.0301,0.024145
1723.8937,0.022537
1725.7574,0.020547
1727.6211,0.018528
1729.4848,0.016805
1731.3484,0.015307
1733.2121,0.014482
1735.0758,0.013458
1736.9394,0.012804
1738.8031,0.012459
1740.6668,0.012167
1742.5304,0.011824
1744.3941,0.011603
1746.2578,0.011137
1748.1214,0.010879
1749.9851,0.010609
1751.8488,0.010447
1753.7125,0.010145
1755.5761,0.010126
1757.4398,0.010058
1759.3035,0.009912
1761.1671,0.009712
1763.0308,0.009584
1764.8945,0.009475
1766.7581,0.009665
1768.6218,0.009672
1770.4855,0.009543
1772.3491,0.009441
1774.2128,0.009338
1776.0765,0.009241
1777.9401,0.009540
1779.8038,0.009688
1781.6675,0.009739
1783.5312,0.009561
1785.3948,0.009584
1787.2585,0.009508
1789.1222,0.009463
1790.9858,0.009426
1792.8495,0.009533
1794.7132,0.009517
1796.5768,0.009608
1798.4405,0.009655
1800.3042,0.009710
1802.1678,0.009730
1804.0315,0.009983
1805.8952,0.009928
1807.7589,0.009938
1809.6225,0.009932
1811.4862,0.010065
1813.3499,0.009938
1815.2135,0.009675
1817.0772,0.009571
1818.9409,0.009675
1820.8045,0.009745
1822.6682,0.009804
1824.5319,0.009650
1826.3955,0.009716
1828.2592,0.009661
1830.1229,0.009719
1831.9865,0.009577
1833.8502,0.009384
1835.7139,0.009189
1837.5776,0.009400
1839.4412,0.009435
1841.3049,0.009287
1843.1686,0.009133
1845.0322,0.009253
1846.8959,0.009305
1848.7596,0.009473
1850.6232,0.009436
1852.4869,0.009692
1854.3506,0.009957
1856.2142,0.009959
1858.0779,0.009813
1859.9416,0.009821
1861.8052,0.009782
1863.6689,0.009702
1865.5326,0.009274
1867.3963,0.009193
1869.2599,0.009291
1871.1236,0.009205
1872.9873,0.009213
1874.8509,0.009395
1876.7146,0.009502
1878.5783,0.009612
1880.4419,0.009526
1882.3056,0.009415
1884.1693,0.009109
1886.0329,0.009169
1887.8966,0.009376
1889.7603,0.009652
1891.6240,0.009708
1893.4876,0.009775
1895.3513,0.009693
1897.2150,0.009433
1899.0786,0.009070
1900.9423,0.009295
1902.8060,0.009256
1904.6696,0.009095
1906.5333,0.009350
1908.3970,0.009537
1910.2606,0.009267
1912.1243,0.009727
1913.9880,0.009607
1915.8516,0.009265
1917.7153,0.009319
1919.5790,0.009353
1921.4427,0.009120
1923.3063,0.009239
1925.1700,0.009061
1927.0337,0.009112
1928.8973,0.008956
1930.7610,0.008717
1932.6247,0.008480
1934.4883,0.008603
1936.3520,0.008899
1938.2157,0.009313
1940.0793,0.008895
1941.9430,0.008634
1943.8067,0.008385
1945.6704,0.008436
1947.5340,0.007974
1949.3977,0.007766
1951.2614,0.007946
1953.1250,0.008393
1954.9887,0.007394
1956.8524,0.006604
1958.7160,0.006125
1960.5797,0.005838
1962.4434,0.005213
1964.3070,0.004390
1966.1707,0.003132
1968.0344,0.002119
1969.8980,0.001540
1971.7617,0.003164
1973.6254,0.003714
1975.4891,0.003435
1977.3527,0.002928
1979.2164,0.004546
1981.0801,0.005759
1982.9437,0.005940
1984.8074,0.005998
1986.6711,0.006583
1988.5347,0.006389
1990.3984,0.005481
1992.2621,0.004755
1994.1257,0.005954
1995.9894,0.006019
1997.8531,0.006516
1999.7167,0.006690
2001.5804,0.006438
2003.4441,0.005451
2005.3078,0.004705
2007.1714,0.005051
2009.0351,0.005761
2010.8988,0.005305
2012.7624,0.005403
2014.6261,0.004885
2016.4898,0.004353
2018.3534,0.003968
2020.2171,0.004287
2022.0808,0.003435
2023.9444,0.003380
2025.8081,0.003775
2027.6718,0.004286
2029.5355,0.004269
2031.3991,0.004286
2033.2628,0.004701
2035.1265,0.005320
2036.9901,0.006206
2038.8538,0.006552
2040.7175,0.005221
2042.5811,0.005220
2044.4448,0.005597
2046.3085,0.007466
2048.1721,0.008743
2050.0358,0.009142
2051.8995,0.008970
2053.7631,0.008105
2055.6268,0.007965
2057.4905,0.008930
2059.3542,0.009521
2061.2178,0.010389
2063.0815,0.010471
2064.9452,0.010440
2066.8088,0.010308
2068.6725,0.010456
2070.5362,0.010636
2072.3998,0.010816
2074.2635,0.010445
2076.1272,0.010712
2077.9908,0.012033
2079.8545,0.013141
2081.7182,0.012584
2083.5819,0.012181
2085.4455,0.012273
2087.3092,0.012482
2089.1729,0.012446
2091.0365,0.012012
2092.9002,0.011415
2094.7639,0.011341
2096.6275,0.011915
2098.4912,0.012757
2100.3549,0.012729
2102.2185,0.012232
2104.0822,0.012193
2105.9459,0.012898
2107.8095,0.012945
2109.6732,0.012947
2111.5369,0.012825
2113.4006,0.012796
2115.2642,0.012964
2117.1279,0.012972
2118.9916,0.012797
2120.8552,0.012815
2122.7189,0.012992
2124.5826,0.013081
2126.4462,0.012621
2128.3099,0.012020
2130.1736,0.011300
2132.0372,0.011027
2133.9009,0.011563
2135.7646,0.012414
2137.6282,0.011232
2139.4919,0.010349
2141.3556,0.010552
2143.2193,0.010261
2145.0829,0.010378
2146.9466,0.010630
2148.8103,0.009395
2150.6739,0.008526
2152.5376,0.007039
2154.4013,0.005568
2156.2649,0.004383
2158.1286,0.005133
2159.9923,0.006635
2161.8559,0.007247
2163.7196,0.007072
2165.5833,0.008283
2167.4470,0.008147
2169.3106,0.007741
2171.1743,0.007710
2173.0380,0.008141
2174.9016,0.007893
2176.7653,0.008347
2178.6290,0.007961
2180.4926,0.008301
2182.3563,0.008163
2184.2200,0.008093
2186.0836,0.010021
2187.9473,0.011449
2189.8110,0.010497
2191.6746,0.010749
2193.5383,0.010687
2195.4020,0.010883
2197.2657,0.011032
2199.1293,0.011025
2200.9930,0.010908
2202.8567,0.011977
2204.7203,0.011887
2206.5840,0.011621
2208.4477,0.011278
2210.3113,0.011979
2212.1750,0.011770
2214.0387,0.011329
2215.9023,0.012515
2217.7660,0.013072
2219.6297,0.012938
2221.4934,0.013297
2223.3570,0.013616
2225.2207,0.014290
2227.0844,0.014822
2228.9480,0.015099
2230.8117,0.014592
2232.6754,0.014041
2234.5390,0.014204
2236.4027,0.014888
2238.2664,0.014687
2240.1300,0.014364
2241.9937,0.014243
2243.8574,0.014589
2245.7210,0.014855
2247.5847,0.014783
2249.4484,0.015509
2251.3121,0.016371
2253.1757,0.015939
2255.0394,0.015762
2256.9031,0.016040
2258.7667,0.016049
2260.6304,0.016059
2262.4941,0.016393
2264.3577,0.016493
2266.2214,0.016852
2268.0851,0.016983
2269.9487,0.017297
2271.8124,0.017725
2273.6761,0.018363
2275.5397,0.018861
2277.4034,0.019196
2279.2671,0.019504
2281.1308,0.019702
2282.9944,0.019574
2284.8581,0.019728
2286.7218,0.020243
2288.5854,0.020230
2290.4491,0.019856
2292.3128,0.020196
2294.1764,0.020462
2296.0401,0.020353
2297.9038,0.020006
2299.7674,0.019903
2301.6311,0.020169
2303.4948,0.020455
2305.3585,0.020241
2307.2221,0.019965
2309.0858,0.019846
2310.9495,0.019812
2312.8131,0.019992
2314.6768,0.020265
2316.5405,0.020304
2318.4041,0.020275
2320.2678,0.020613
2322.1315,0.020734
2323.9951,0.020657
2325.8588,0.020256
2327.7225,0.019184
2329.5861,0.019008
2331.4498,0.019457
2333.3135,0.019394
2335.1772,0.018939
2337.0408,0.018556
2338.9045,0.018639
2340.7682,0.019194
2342.6318,0.019493
2344.4955,0.019270
2346.3592,0.019123
2348.2228,0.018960
2350.0865,0.018610
2351.9502,0.018408
2353.8138,0.018288
2355.6775,0.018340
2357.5412,0.018446
2359.4049,0.018327
2361.2685,0.018284
2363.1322,0.018384
2364.9959,0.018656
2366.8595,0.019005
2368.7232,0.019289
2370.5869,0.019218
2372.4505,0.019629
2374.3142,0.020263
2376.1779,0.020143
2378.0415,0.020147
2379.9052,0.020254
2381.7689,0.020197
2383.6325,0.019824
2385.4962,0.019692
2387.3599,0.020140
2389.2236,0.020107
2391.0872,0.019815
2392.9509,0.020080
2394.8146,0.020300
2396.6782,0.020332
2398.5419,0.020240
2400.4056,0.020196
2402.2692,0.020270
2404.1329,0.020557
2405.9966,0.020377
2407.8602,0.020403
2409.7239,0.020667
2411.5876,0.020671
2413.4512,0.020653
2415.3149,0.020773
2417.1786,0.020704
2419.0423,0.020951
2420.9059,0.021207
2422.7696,0.021332
2424.6333,0.021184
2426.4969,0.021112
2428.3606,0.021265
2430.2243,0.021344
2432.0879,0.021256
2433.9516,0.021396
2435.8153,0.021358
2437.6789,0.021221
2439.5426,0.021132
2441.4063,0.021275
2443.2700,0.021507
2445.1336,0.021508
2446.9973,0.021645
2448.8610,0.021541
2450.7246,0.021074
2452.5883,0.020967
2454.4520,0.021255
2456.3156,0.021463
2458.1793,0.021543
2460.0430,0.021631
2461.9066,0.021403
2463.7703,0.021111
2465.6340,0.020985
2467.4976,0.020740
2469.3613,0.020650
2471.2250,0.020951
2473.0887,0.021179
2474.9523,0.021296
2476.8160,0.021386
2478.6797,0.021403
2480.5433,0.021530
2482.4070,0.021665
2484.2707,0.021354
2486.1343,0.021237
2487.9980,0.021689
2489.8617,0.022001
2491.7253,0.021949
2493.5890,0.022052
2495.4527,0.022253
2497.3164,0.022232
2499.1800,0.022186
2501.0437,0.022307
2502.9074,0.022102
2504.7710,0.022287
2506.6347,0.022625
2508.4984,0.022723
2510.3620,0.022723
2512.2257,0.022911
2514.0894,0.022830
2515.9530,0.022723
2517.8167,0.022819
2519.6804,0.022993
2521.5440,0.023262
2523.4077,0.023482
2525.2714,0.023596
2527.1351,0.023512
