Wavenumber,Intensity
650.4205,0.246937
652.2841,0.240134
654.1478,0.237526
656.0115,0.236333
657.8751,0.233177
659.7388,0.228308
661.6025,0.225801
663.4661,0.223039
665.3298,0.221523
667.1935,0.223473
669.0571,0.224884
670.9208,0.219984
672.7845,0.217537
674.6481,0.216186
676.5118,0.216645
678.3755,0.215933
680.2392,0.214552
682.1028,0.214200
683.9665,0.214148
685.8302,0.212659
687.6938,0.212821
689.5575,0.212988
691.4212,0.212598
693.2848,0.212421
695.1485,0.213915
697.0122,0.215551
698.8758,0.216763
700.7395,0.216183
702.6032,0.214711
704.4669,0.212053
706.3305,0.207662
708.1942,0.200551
710.0579,0.190977
711.9215,0.180894
713.7852,0.172036
715.6489,0.163730
717.5125,0.156590
719.3762,0.149913
721.2399,0.143979
723.1035,0.138383
724.9672,0.133016
726.8309,0.128281
728.6945,0.124327
730.5582,0.120421
732.4219,0.116395
734.2856,0.112555
736.1492,0.108449
738.0129,0.104969
739.8766,0.104288
741.7402,0.105556
743.6039,0.106811
745.4676,0.107253
747.3312,0.106686
749.1949,0.105571
751.0586,0.104309
752.9222,0.102723
754.7859,0.101327
756.6496,0.100294
758.5132,0.099558
760.3769,0.098644
762.2406,0.097461
764.1043,0.096877
765.9679,0.096956
767.8316,0.096780
769.6953,0.096521
771.5589,0.096774
773.4226,0.097353
775.2863,0.097989
777.1499,0.099138
779.0136,0.100303
780.8773,0.101718
782.7409,0.103482
784.6046,0.104845
786.4683,0.106522
788.3320,0.109031
790.1956,0.111550
792.0593,0.114039
793.9230,0.116619
795.7866,0.119119
797.6503,0.121140
799.5140,0.122921
801.3776,0.124351
803.2413,0.125348
805.1050,0.125430
806.9686,0.124258
808.8323,0.122378
810.6960,0.119758
812.5596,0.116221
814.4233,0.112352
816.2870,0.108637
818.1507,0.105359
820.0143,0.102276
821.8780,0.099772
823.7417,0.098721
825.6053,0.099222
827.4690,0.101358
829.3327,0.102734
831.1963,0.096753
833.0600,0.083268
834.9237,0.071723
836.7873,0.066467
838.6510,0.064740
840.5147,0.064020
842.3784,0.063840
844.2420,0.063907
846.1057,0.063825
847.9694,0.063296
849.8330,0.062242
851.6967,0.061430
853.5604,0.061166
855.4240,0.061095
857.2877,0.061182
859.1514,0.061103
861.0150,0.060882
862.8787,0.061044
864.7424,0.061535
866.6060,0.061964
868.4697,0.062198
870.3334,0.062199
872.1971,0.062238
874.0607,0.062508
875.9244,0.062980
877.7881,0.063622
879.6517,0.064200
881.5154,0.064680
883.3791,0.065323
885.2427,0.066163
887.1064,0.067175
888.9701,0.068395
890.8337,0.069659
892.6974,0.070556
894.5611,0.070916
896.4247,0.071021
898.2884,0.071671
900.1521,0.073117
902.0158,0.075200
903.8794,0.078280
905.7431,0.082684
907.6068,0.088103
909.4704,0.094208
911.3341,0.102034
913.1978,0.111507
915.0614,0.116288
916.9251,0.107413
918.7888,0.089140
920.6524,0.074847
922.5161,0.068677
924.3798,0.066927
926.2435,0.066718
928.1071,0.067220
929.9708,0.067857
931.8345,0.068506
933.6981,0.069348
935.5618,0.070374
937.4255,0.071384
939.2891,0.072234
941.1528,0.073030
943.0165,0.073950
944.8801,0.075073
946.7438,0.076438
948.6075,0.077705
950.4711,0.078784
952.3348,0.079997
954.1985,0.081418
956.0622,0.082815
957.9258,0.084294
959.7895,0.085931
961.6532,0.087381
963.5168,0.088470
965.3805,0.089695
967.2442,0.091664
969.1078,0.094481
970.9715,0.097569
972.8352,0.101278
974.6988,0.107404
976.5625,0.118248
978.4262,0.137417
980.2899,0.164865
982.1535,0.177242
984.0172,0.148142
985.8809,0.107699
987.7445,0.088860
989.6082,0.085519
991.4719,0.085995
993.3355,0.087251
995.1992,0.088498
997.0629,0.089771
998.9265,0.091153
1000.7902,0.092470
1002.6539,0.093800
1004.5175,0.095209
1006.3812,0.096607
1008.2449,0.097897
1010.1086,0.099171
1011.9722,0.100316
1013.8359,0.101211
1015.6996,0.102088
1017.5632,0.102917
1019.4269,0.103412
1021.2906,0.103759
1023.1542,0.104290
1025.0179,0.104936
1026.8816,0.105680
1028.7452,0.106799
1030.6089,0.108301
1032.4726,0.109857
1034.3362,0.111434
1036.1999,0.113064
1038.0636,0.114468
1039.9273,0.116129
1041.7909,0.119059
1043.6546,0.123250
1045.5183,0.127754
1047.3819,0.130985
1049.2456,0.130623
1051.1093,0.124407
1052.9729,0.113487
1054.8366,0.102658
1056.7003,0.095398
1058.5639,0.091971
1060.4276,0.091074
1062.2913,0.091341
1064.1550,0.092067
1066.0186,0.093303
1067.8823,0.094957
1069.7460,0.096774
1071.6096,0.098798
1073.4733,0.101064
1075.3370,0.103499
1077.2006,0.106035
1079.0643,0.108652
1080.9280,0.111489
1082.7916,0.114748
1084.6553,0.118326
1086.5190,0.122188
1088.3826,0.126498
1090.2463,0.131425
1092.1100,0.137165
1093.9737,0.143594
1095.8373,0.150497
1097.7010,0.158000
1099.5647,0.166192
1101.4283,0.174465
1103.2920,0.181907
1105.1557,0.187444
1107.0193,0.188960
1108.8830,0.184161
1110.7467,0.172810
1112.6103,0.157326
1114.4740,0.140947
1116.3377,0.125868
1118.2014,0.113370
1120.0650,0.104056
1121.9287,0.097679
1123.7924,0.093471
1125.6560,0.090462
1127.5197,0.087834
1129.3834,0.085140
1131.2470,0.082556
1133.1107,0.080470
1134.9744,0.078883
1136.8380,0.077710
1138.7017,0.076965
1140.5654,0.076714
1142.4290,0.076873
1144.2927,0.077133
1146.1564,0.077343
1148.0201,0.077548
1149.8837,0.077927
1151.7474,0.078514
1153.6111,0.079283
1155.4747,0.080255
1157.3384,0.081499
1159.2021,0.083087
1161.0657,0.084996
1162.9294,0.087355
1164.7931,0.090370
1166.6567,0.094336
1168.5204,0.099105
1170.3841,0.103994
1172.2477,0.107462
1174.1114,0.107310
1175.9751,0.102797
1177.8388,0.096167
1179.7024,0.090418
1181.5661,0.086817
1183.4298,0.085127
1185.2934,0.084449
1187.1571,0.084088
1189.0208,0.083836
1190.8844,0.083761
1192.7481,0.083674
1194.6118,0.083477
1196.4754,0.083498
1198.3391,0.083757
1200.2028,0.084122
1202.0665,0.084526
1203.9301,0.084915
1205.7938,0.085213
1207.6575,0.085465
1209.5211,0.085757
1211.3848,0.086043
1213.2485,0.086261
1215.1121,0.086405
1216.9758,0.086575
1218.8395,0.086774
1220.7031,0.086893
1222.5668,0.086901
1224.4305,0.087024
1226.2941,0.087285
1228.1578,0.087453
1230.0215,0.087625
1231.8852,0.087891
1233.7488,0.088106
1235.6125,0.088251
1237.4762,0.088445
1239.3398,0.088723
1241.2035,0.089143
1243.0672,0.089910
1244.9308,0.090910
1246.7945,0.091831
1248.6582,0.092694
1250.5218,0.093482
1252.3855,0.094029
1254.2492,0.094469
1256.1129,0.095049
1257.9765,0.095881
1259.8402,0.097108
1261.7039,0.098448
1263.5675,0.099702
1265.4312,0.100999
1267.2949,0.101774
1269.1585,0.101881
1271.0222,0.101867
1272.8859,0.101898
1274.7495,0.102151
1276.6132,0.102917
1278.4769,0.104129
1280.3405,0.105612
1282.2042,0.107328
1284.0679,0.109322
1285.9316,0.111768
1287.7952,0.114826
1289.6589,0.118429
1291.5226,0.122515
1293.3862,0.127251
1295.2499,0.132949
1297.1136,0.140011
1298.9772,0.148615
1300.8409,0.158990
1302.7046,0.170006
1304.5682,0.177957
1306.4319,0.177748
1308.2956,0.164208
1310.1592,0.138402
1312.0229,0.111349
1313.8866,0.093047
1315.7503,0.085516
1317.6139,0.084577
1319.4776,0.086559
1321.3413,0.089236
1323.2049,0.091970
1325.0686,0.095057
1326.9323,0.098238
1328.7959,0.101378
1330.6596,0.104434
1332.5233,0.106887
1334.3869,0.108417
1336.2506,0.109741
1338.1143,0.112330
1339.9780,0.115748
1341.8416,0.116872
1343.7053,0.116751
1345.5690,0.117311
1347.4326,0.118139
1349.2963,0.119452
1351.1600,0.121122
1353.0236,0.123157
1354.8873,0.125979
1356.7510,0.128822
1358.6146,0.131086
1360.4783,0.134496
1362.3420,0.141141
1364.2056,0.147008
1366.0693,0.149234
1367.9330,0.153225
1369.7967,0.158383
1371.6603,0.162244
1373.5240,0.168594
1375.3877,0.176093
1377.2513,0.180040
1379.1150,0.185527
1380.9787,0.193121
1382.8423,0.200961
1384.7060,0.209909
1386.5697,0.222246
1388.4333,0.235608
1390.2970,0.241484
1392.1607,0.244824
1394.0244,0.247634
1395.8880,0.242730
1397.7517,0.231320
1399.6154,0.217917
1401.4790,0.204045
1403.3427,0.192346
1405.2064,0.175398
1407.0700,0.151605
1408.9337,0.128894
1410.7974,0.108466
1412.6610,0.093630
1414.5247,0.086416
1416.3884,0.085595
1418.2520,0.092042
1420.1157,0.104185
1421.9794,0.109720
1423.8431,0.108187
1425.7067,0.098237
1427.5704,0.086315
1429.4341,0.078728
1431.2977,0.075282
1433.1614,0.074389
1435.0251,0.075856
1436.8887,0.081062
1438.7524,0.083990
1440.6161,0.084322
1442.4797,0.086205
1444.3434,0.087990
1446.2071,0.089466
1448.0707,0.090570
1449.9344,0.088634
1451.7981,0.084681
1453.6618,0.080989
1455.5254,0.080670
1457.3891,0.087642
1459.2528,0.089462
1461.1164,0.086101
1462.9801,0.085541
1464.8438,0.087245
1466.7074,0.086666
1468.5711,0.083591
1470.4348,0.082179
1472.2984,0.084327
1474.1621,0.086840
1476.0258,0.085837
1477.8895,0.084963
1479.7531,0.084274
1481.6168,0.084943
1483.4805,0.085218
1485.3441,0.084936
1487.2078,0.086416
1489.0715,0.090485
1490.9351,0.093459
1492.7988,0.092030
1494.6625,0.091351
1496.5261,0.095116
1498.3898,0.099073
1500.2535,0.099124
1502.1171,0.097682
1503.9808,0.096854
1505.8445,0.101337
1507.7082,0.114885
1509.5718,0.111986
1511.4355,0.108992
1513.2992,0.108881
1515.1628,0.109965
1517.0265,0.112754
1518.8902,0.114204
1520.7538,0.116500
1522.6175,0.121620
1524.4812,0.120904
1526.3448,0.122110
1528.2085,0.123434
1530.0722,0.122618
1531.9359,0.123706
1533.7995,0.128105
1535.6632,0.127792
1537.5269,0.126003
1539.3905,0.132261
1541.2542,0.144890
1543.1179,0.144365
1544.9815,0.145139
1546.8452,0.145539
1548.7089,0.146616
1550.5725,0.150284
1552.4362,0.152276
1554.2999,0.153770
1556.1635,0.157264
1558.0272,0.166961
1559.8909,0.188196
1561.7546,0.178197
1563.6182,0.174464
1565.4819,0.177510
1567.3456,0.181490
1569.2092,0.187720
1571.0729,0.193569
1572.9366,0.193181
1574.8002,0.197888
1576.6639,0.209500
1578.5276,0.212658
1580.3912,0.212297
1582.2549,0.215839
1584.1186,0.219337
1585.9822,0.221715
1587.8459,0.222988
1589.7096,0.223784
1591.5733,0.223421
1593.4369,0.222522
1595.3006,0.221049
1597.1643,0.218437
1599.0279,0.214978
1600.8916,0.211996
1602.7553,0.209318
1604.6189,0.206689
1606.4826,0.204391
1608.3463,0.202619
1610.2099,0.200158
1612.0736,0.196088
1613.9373,0.191966
1615.8010,0.188783
1617.6646,0.179984
1619.5283,0.167365
1621.3920,0.159669
1623.2556,0.151785
1625.1193,0.140709
1626.9830,0.130544
1628.8466,0.119063
1630.7103,0.106850
1632.5740,0.097502
1634.4376,0.089633
1636.3013,0.080787
1638.1650,0.073204
1640.0286,0.070232
1641.8923,0.068507
1643.7560,0.068445
1645.6197,0.070613
1647.4833,0.075820
1649.3470,0.077367
1651.2107,0.078955
1653.0743,0.087399
1654.9380,0.094294
1656.8017,0.091487
1658.6653,0.091851
1660.5290,0.092930
1662.3927,0.093443
1664.2563,0.091915
1666.1200,0.089516
1667.9837,0.088212
1669.8474,0.087645
1671.7110,0.085949
1673.5747,0.085699
1675.4384,0.088537
1677.3020,0.091859
1679.1657,0.094039
1681.0294,0.098995
1682.8930,0.105608
1684.7567,0.115531
1686.6204,0.116511
1688.4840,0.114622
1690.3477,0.113395
1692.2114,0.110202
1694.0750,0.107231
1695.9387,0.105130
1697.8024,0.100556
1699.6661,0.096485
1701.5297,0.087550
1703.3934,0.078565
1705.2571,0.069756
1707.1207,0.057988
1708.9844,0.049441
1710.8481,0.043518
1712.7117,0.038784
1714.5754,0.036007
1716.4391,0.033804
1718.3027,0.032492
1720.1664,0.030670
1722.0301,0.028994
1723.8937,0.026839
1725.7574,0.024432
1727.6211,0.022056
1729.4848,0.020058
1731.3484,0.018092
1733.2121,0.017129
1735.0758,0.016377
1736.9394,0.015364
1738.8031,0.014576
1740.6668,0.014415
1742.5304,0.013924
1744.3941,0.013636
1746.2578,0.013131
1748.1214,0.012804
1749.9851,0.012468
1751.8488,0.012553
1753.7125,0.012199
1755.5761,0.011993
1757.4398,0.012034
1759.3035,0.011998
1761.1671,0.011725
1763.0308,0.011836
1764.8945,0.011613
1766.7581,0.011446
1768.6218,0.011336
1770.4855,0.011435
1772.3491,0.011470
1774.2128,0.011710
1776.0765,0.011467
1777.9401,0.011453
1779.8038,0.011439
1781.6675,0.011774
1783.5312,0.011772
1785.3948,0.011800
1787.2585,0.011774
1789.1222,0.011683
1790.9858,0.011736
1792.8495,0.012442
1794.7132,0.012220
1796.5768,0.011867
1798.4405,0.011754
1800.3042,0.011976
1802.1678,0.012162
1804.0315,0.012325
1805.8952,0.012351
1807.7589,0.012616
1809.6225,0.012748
1811.4862,0.012749
1813.3499,0.012445
1815.2135,0.012398
1817.0772,0.012291
1818.9409,0.012436
1820.8045,0.012425
1822.6682,0.012514
1824.5319,0.012689
1826.3955,0.012896
1828.2592,0.012545
1830.1229,0.012534
1831.9865,0.012375
1833.8502,0.012156
1835.7139,0.012080
1837.5776,0.012233
1839.4412,0.012312
1841.3049,0.012294
1843.1686,0.012065
1845.0322,0.012365
1846.8959,0.012384
1848.7596,0.012455
1850.6232,0.012479
1852.4869,0.012779
1854.3506,0.012749
1856.2142,0.012704
1858.0779,0.012793
1859.9416,0.013052
1861.8052,0.012912
1863.6689,0.013062
1865.5326,0.012734
1867.3963,0.012459
1869.2599,0.012615
1871.1236,0.012708
1872.9873,0.012581
1874.8509,0.012778
1876.7146,0.012788
1878.5783,0.013118
1880.4419,0.013140
1882.3056,0.012999
1884.1693,0.012846
1886.0329,0.013043
1887.8966,0.012863
1889.7603,0.012895
1891.6240,0.012876
1893.4876,0.012978
1895.3513,0.012818
1897.2150,0.012944
1899.0786,0.012988
1900.9423,0.013239
1902.8060,0.013203
1904.6696,0.013024
1906.5333,0.013093
1908.3970,0.013248
1910.2606,0.012844
1912.1243,0.012775
1913.9880,0.012539
1915.8516,0.012600
1917.7153,0.013030
1919.5790,0.013612
1921.4427,0.013368
1923.3063,0.013247
1925.1700,0.012678
1927.0337,0.012558
1928.8973,0.012629
1930.7610,0.012885
1932.6247,0.012621
1934.4883,0.012387
1936.3520,0.011974
1938.2157,0.012574
1940.0793,0.012681
1941.9430,0.012246
1943.8067,0.010991
1945.6704,0.011645
1947.5340,0.012309
1949.3977,0.012009
1951.2614,0.010982
1953.1250,0.010651
1954.9887,0.010265
1956.8524,0.010489
1958.7160,0.010283
1960.5797,0.010517
1962.4434,0.008728
1964.3070,0.007781
1966.1707,0.006961
1968.0344,0.006338
1969.8980,0.004923
1971.7617,0.004752
1973.6254,0.005305
1975.4891,0.006300
1977.3527,0.005919
1979.2164,0.007616
1981.0801,0.009030
1982.9437,0.009701
1984.8074,0.009337
1986.6711,0.009164
1988.5347,0.008435
1990.3984,0.008946
1992.2621,0.009920
1994.1257,0.010151
1995.9894,0.009919
1997.8531,0.010123
1999.7167,0.010505
2001.5804,0.010845
2003.4441,0.008972
2005.3078,0.008484
2007.1714,0.008360
2009.0351,0.009056
2010.8988,0.008607
2012.7624,0.007487
2014.6261,0.007193
2016.4898,0.008444
2018.3534,0.006874
2020.2171,0.005956
2022.0808,0.006024
2023.9444,0.007600
2025.8081,0.008467
2027.6718,0.008770
2029.5355,0.008229
2031.3991,0.006910
2033.2628,0.006170
2035.1265,0.008290
2036.9901,0.008945
2038.8538,0.009873
2040.7175,0.009573
2042.5811,0.009703
2044.4448,0.010378
2046.3085,0.010937
2048.1721,0.010908
2050.0358,0.012142
2051.8995,0.012456
2053.7631,0.012787
2055.6268,0.013275
2057.4905,0.013375
2059.3542,0.013586
2061.2178,0.014816
2063.0815,0.015383
2064.9452,0.015148
2066.8088,0.014401
2068.6725,0.014609
2070.5362,0.014679
2072.3998,0.014422
2074.2635,0.014800
2076.1272,0.015858
2077.9908,0.015189
2079.8545,0.015322
2081.7182,0.016006
2083.5819,0.016348
2085.4455,0.016550
2087.3092,0.017273
2089.1729,0.017788
2091.0365,0.017382
2092.9002,0.016435
2094.7639,0.016793
2096.6275,0.017465
2098.4912,0.017940
2100.3549,0.017539
2102.2185,0.017299
2104.0822,0.017214
2105.9459,0.017210
2107.8095,0.017129
2109.6732,0.017721
2111.5369,0.017814
2113.4006,0.017971
2115.2642,0.018140
2117.1279,0.017854
2118.9916,0.018025
2120.8552,0.018291
2122.7189,0.018421
2124.5826,0.018861
2126.4462,0.018157
2128.3099,0.017514
2130.1736,0.017243
2132.0372,0.016910
2133.9009,0.015662
2135.7646,0.016004
2137.6282,0.016507
2139.4919,0.016410
2141.3556,0.015039
2143.2193,0.014123
2145.0829,0.014351
2146.9466,0.014314
2148.8103,0.012810
2150.6739,0.013298
2152.5376,0.012604
2154.4013,0.010936
2156.2649,0.008816
2158.1286,0.008545
2159.9923,0.009297
2161.8559,0.010238
2163.7196,0.010779
2165.5833,0.011575
2167.4470,0.011438
2169.3106,0.011869
2171.1743,0.011972
2173.0380,0.012806
2174.9016,0.012602
2176.7653,0.012453
2178.6290,0.012236
2180.4926,0.012438
2182.3563,0.012881
2184.2200,0.013770
2186.0836,0.014003
2187.9473,0.014583
2189.8110,0.014316
2191.6746,0.014837
2193.5383,0.014772
2195.4020,0.014770
2197.2657,0.015045
2199.1293,0.015282
2200.9930,0.015236
2202.8567,0.015817
2204.7203,0.015870
2206.5840,0.016182
2208.4477,0.016831
2210.3113,0.017585
2212.1750,0.017567
2214.0387,0.017778
2215.9023,0.018214
2217.7660,0.018692
2219.6297,0.017766
2221.4934,0.018195
2223.3570,0.018909
2225.2207,0.018881
2227.0844,0.018721
2228.9480,0.018812
2230.8117,0.018886
2232.6754,0.019657
2234.5390,0.019884
2236.4027,0.020046
2238.2664,0.020088
2240.1300,0.020471
2241.9937,0.020686
2243.8574,0.021070
2245.7210,0.021185
2247.5847,0.021215
2249.4484,0.020677
2251.3121,0.020952
2253.1757,0.020657
2255.0394,0.020626
2256.9031,0.020765
2258.7667,0.021691
2260.6304,0.022259
2262.4941,0.021993
2264.3577,0.022012
2266.2214,0.022402
2268.0851,0.023093
2269.9487,0.023772
2271.8124,0.023763
2273.6761,0.024493
2275.5397,0.025461
2277.4034,0.025651
2279.2671,0.025488
2281.1308,0.025924
2282.9944,0.026203
2284.8581,0.026256
2286.7218,0.025975
2288.5854,0.025814
2290.4491,0.026114
2292.3128,0.026459
2294.1764,0.026484
2296.0401,0.026676
2297.9038,0.026756
2299.7674,0.026661
2301.6311,0.026854
2303.4948,0.027057
2305.3585,0.027019
2307.2221,0.026726
2309.0858,0.026711
2310.9495,0.026879
2312.8131,0.026887
2314.6768,0.026938
2316.5405,0.027198
2318.4041,0.027328
2320.2678,0.027392
2322.1315,0.027790
2323.9951,0.027553
2325.8588,0.026788
2327.7225,0.026085
2329.5861,0.025874
2331.4498,0.025622
2333.3135,0.025666
2335.1772,0.025644
2337.0408,0.025821
2338.9045,0.026206
2340.7682,0.026141
2342.6318,0.026263
2344.4955,0.026683
2346.3592,0.026564
2348.2228,0.025852
2350.0865,0.025090
2351.9502,0.025087
2353.8138,0.025571
2355.6775,0.025763
2357.5412,0.025686
2359.4049,0.025780
2361.2685,0.025633
2363.1322,0.025506
2364.9959,0.025793
2366.8595,0.026134
2368.7232,0.026403
2370.5869,0.026868
2372.4505,0.026612
2374.3142,0.026653
2376.1779,0.027211
2378.0415,0.027414
2379.9052,0.027156
2381.7689,0.026886
2383.6325,0.026790
2385.4962,0.026746
2387.3599,0.026673
2389.2236,0.027074
2391.0872,0.027176
2392.9509,0.027034
2394.8146,0.027251
2396.6782,0.027415
2398.5419,0.027341
2400.4056,0.027512
2402.2692,0.027750
2404.1329,0.027726
2405.9966,0.027324
2407.8602,0.027368
2409.7239,0.027793
2411.5876,0.027953
2413.4512,0.028037
2415.3149,0.027995
2417.1786,0.027926
2419.0423,0.027908
2420.9059,0.027927
2422.7696,0.028023
2424.6333,0.028176
2426.4969,0.028546
2428.3606,0.028915
2430.2243,0.028825
2432.0879,0.028633
2433.9516,0.028665
2435.8153,0.029020
2437.6789,0.028946
2439.5426,0.028603
2441.4063,0.028472
2443.2700,0.028712
2445.1336,0.028770
2446.9973,0.028554
2448.8610,0.028345
2450.7246,0.028500
2452.5883,0.028636
2454.4520,0.028506
2456.3156,0.028713
2458.1793,0.028772
2460.0430,0.028441
2461.9066,0.028267
2463.7703,0.028438
2465.6340,0.028274
2467.4976,0.028012
2469.3613,0.028120
2471.2250,0.028289
2473.0887,0.028491
2474.9523,0.028662
2476.8160,0.028731
2478.6797,0.028695
2480.5433,0.028895
2482.4070,0.028848
2484.2707,0.028874
2486.1343,0.029213
2487.9980,0.029487
2489.8617,0.029522
2491.7253,0.029458
2493.5890,0.029618
2495.4527,0.029508
2497.3164,0.029547
2499.1800,0.029754
2501.0437,0.029609
2502.9074,0.029857
2504.7710,0.030112
2506.6347,0.029891
2508.4984,0.030024
2510.3620,0.030145
2512.2257,0.030396
2514.0894,0.030515
2515.9530,0.030585
2517.8167,0.030630
2519.6804,0.030685
2521.5440,0.030852
2523.4077,0.031018
2525.2714,0.031176
2527.1351,0.030831
