Wavenumber,Intensity
650.4205,0.254490
652.2841,0.250715
654.1478,0.246773
656.0115,0.243349
657.8751,0.243542
659.7388,0.243917
661.6025,0.245216
663.4661,0.243946
665.3298,0.243579
667.1935,0.245674
669.0571,0.247734
670.9208,0.242649
672.7845,0.236902
674.6481,0.230752
676.5118,0.226998
678.3755,0.226844
680.2392,0.228796
682.1028,0.228986
683.9665,0.227022
685.8302,0.221740
687.6938,0.217803
689.5575,0.216763
691.4212,0.217317
693.2848,0.215926
695.1485,0.214316
697.0122,0.214003
698.8758,0.215523
700.7395,0.216121
702.6032,0.215273
704.4669,0.210299
706.3305,0.203551
708.1942,0.194996
710.0579,0.183973
711.9215,0.173020
713.7852,0.162701
715.6489,0.152938
717.5125,0.145446
719.3762,0.139385
721.2399,0.134257
723.1035,0.129424
724.9672,0.125567
726.8309,0.122202
728.6945,0.118914
730.5582,0.116576
732.4219,0.114441
734.2856,0.112834
736.1492,0.113900
738.0129,0.118969
739.8766,0.126396
741.7402,0.133570
743.6039,0.134705
745.4676,0.124918
747.3312,0.114684
749.1949,0.110222
751.0586,0.107608
752.9222,0.105837
754.7859,0.103400
756.6496,0.099922
758.5132,0.097769
760.3769,0.097068
762.2406,0.096851
764.1043,0.097485
765.9679,0.098831
767.8316,0.098947
769.6953,0.097817
771.5589,0.097493
773.4226,0.098302
775.2863,0.099342
777.1499,0.100462
779.0136,0.101719
780.8773,0.102976
782.7409,0.104348
784.6046,0.106087
786.4683,0.107959
788.3320,0.110183
790.1956,0.112676
792.0593,0.115278
793.9230,0.118056
795.7866,0.120988
797.6503,0.123750
799.5140,0.126325
801.3776,0.128468
803.2413,0.129443
805.1050,0.128731
806.9686,0.126944
808.8323,0.124736
810.6960,0.122100
812.5596,0.118755
814.4233,0.114909
816.2870,0.111136
818.1507,0.107811
820.0143,0.104747
821.8780,0.102796
823.7417,0.102336
825.6053,0.103175
827.4690,0.105310
829.3327,0.106462
831.1963,0.100410
833.0600,0.087270
834.9237,0.076418
836.7873,0.071781
838.6510,0.070383
840.5147,0.069551
842.3784,0.069201
844.2420,0.069673
846.1057,0.070563
847.9694,0.071479
849.8330,0.071568
851.6967,0.070539
853.5604,0.070300
855.4240,0.071353
857.2877,0.071968
859.1514,0.071594
861.0150,0.071586
862.8787,0.072167
864.7424,0.072491
866.6060,0.071975
868.4697,0.071072
870.3334,0.070687
872.1971,0.071011
874.0607,0.071664
875.9244,0.072121
877.7881,0.072277
879.6517,0.072483
881.5154,0.073005
883.3791,0.073629
885.2427,0.074139
887.1064,0.074648
888.9701,0.075431
890.8337,0.076364
892.6974,0.077339
894.5611,0.078473
896.4247,0.079796
898.2884,0.081413
900.1521,0.083625
902.0158,0.086359
903.8794,0.089703
905.7431,0.094079
907.6068,0.099507
909.4704,0.106216
911.3341,0.115371
913.1978,0.126893
915.0614,0.133687
916.9251,0.124745
918.7888,0.105320
920.6524,0.090313
922.5161,0.083405
924.3798,0.081125
926.2435,0.080994
928.1071,0.081450
929.9708,0.081892
931.8345,0.082713
933.6981,0.083823
935.5618,0.084922
937.4255,0.086114
939.2891,0.087392
941.1528,0.088582
943.0165,0.089852
944.8801,0.091229
946.7438,0.092621
948.6075,0.094083
950.4711,0.095648
952.3348,0.097344
954.1985,0.099072
956.0622,0.100863
957.9258,0.102856
959.7895,0.104975
961.6532,0.107214
963.5168,0.109512
965.3805,0.112001
967.2442,0.115017
969.1078,0.118676
970.9715,0.122703
972.8352,0.127608
974.6988,0.135081
976.5625,0.147445
978.4262,0.167769
980.2899,0.195375
982.1535,0.205444
984.0172,0.173702
985.8809,0.134451
987.7445,0.117996
989.6082,0.116055
991.4719,0.117169
993.3355,0.118995
995.1992,0.121281
997.0629,0.123778
998.9265,0.126379
1000.7902,0.129010
1002.6539,0.131714
1004.5175,0.134834
1006.3812,0.137666
1008.2449,0.138974
1010.1086,0.139128
1011.9722,0.139223
1013.8359,0.139216
1015.6996,0.138878
1017.5632,0.138234
1019.4269,0.137015
1021.2906,0.135168
1023.1542,0.133107
1025.0179,0.131099
1026.8816,0.129346
1028.7452,0.128037
1030.6089,0.127031
1032.4726,0.126284
1034.3362,0.126076
1036.1999,0.126400
1038.0636,0.127226
1039.9273,0.128721
1041.7909,0.130892
1043.6546,0.133698
1045.5183,0.136867
1047.3819,0.138870
1049.2456,0.137011
1051.1093,0.129058
1052.9729,0.116598
1054.8366,0.104874
1056.7003,0.097640
1058.5639,0.094591
1060.4276,0.093709
1062.2913,0.093591
1064.1550,0.093853
1066.0186,0.094612
1067.8823,0.095556
1069.7460,0.096676
1071.6096,0.098511
1073.4733,0.100890
1075.3370,0.103281
1077.2006,0.105168
1079.0643,0.106483
1080.9280,0.108099
1082.7916,0.110579
1084.6553,0.113722
1086.5190,0.117401
1088.3826,0.121576
1090.2463,0.126360
1092.1100,0.131888
1093.9737,0.138294
1095.8373,0.145504
1097.7010,0.153049
1099.5647,0.160596
1101.4283,0.168019
1103.2920,0.174587
1105.1557,0.179075
1107.0193,0.179820
1108.8830,0.174801
1110.7467,0.163720
1112.6103,0.149007
1114.4740,0.133686
1116.3377,0.119615
1118.2014,0.107753
1120.0650,0.098748
1121.9287,0.092518
1123.7924,0.088404
1125.6560,0.085481
1127.5197,0.083003
1129.3834,0.080751
1131.2470,0.078595
1133.1107,0.076601
1134.9744,0.074973
1136.8380,0.073812
1138.7017,0.073382
1140.5654,0.073638
1142.4290,0.073961
1144.2927,0.074084
1146.1564,0.073989
1148.0201,0.073570
1149.8837,0.073151
1151.7474,0.073520
1153.6111,0.074832
1155.4747,0.076237
1157.3384,0.077008
1159.2021,0.077223
1161.0657,0.077549
1162.9294,0.078521
1164.7931,0.080284
1166.6567,0.083129
1168.5204,0.087235
1170.3841,0.091977
1172.2477,0.095492
1174.1114,0.095516
1175.9751,0.091330
1177.8388,0.085038
1179.7024,0.079728
1181.5661,0.076559
1183.4298,0.075160
1185.2934,0.074806
1187.1571,0.074865
1189.0208,0.075050
1190.8844,0.075117
1192.7481,0.075018
1194.6118,0.074910
1196.4754,0.074984
1198.3391,0.075320
1200.2028,0.075816
1202.0665,0.076300
1203.9301,0.076794
1205.7938,0.077322
1207.6575,0.077775
1209.5211,0.078185
1211.3848,0.078670
1213.2485,0.079226
1215.1121,0.079865
1216.9758,0.080574
1218.8395,0.081309
1220.7031,0.082089
1222.5668,0.083028
1224.4305,0.084241
1226.2941,0.085670
1228.1578,0.086995
1230.0215,0.087629
1231.8852,0.087081
1233.7488,0.085659
1235.6125,0.084660
1237.4762,0.084822
1239.3398,0.085641
1241.2035,0.086543
1243.0672,0.087469
1244.9308,0.088483
1246.7945,0.089492
1248.6582,0.090475
1250.5218,0.091393
1252.3855,0.092142
1254.2492,0.092821
1256.1129,0.093533
1257.9765,0.094336
1259.8402,0.095469
1261.7039,0.096838
1263.5675,0.098149
1265.4312,0.099365
1267.2949,0.100298
1269.1585,0.100769
1271.0222,0.100978
1272.8859,0.101228
1274.7495,0.101755
1276.6132,0.102676
1278.4769,0.103861
1280.3405,0.105249
1282.2042,0.106891
1284.0679,0.108872
1285.9316,0.111378
1287.7952,0.114598
1289.6589,0.118336
1291.5226,0.122503
1293.3862,0.127048
1295.2499,0.131973
1297.1136,0.137897
1298.9772,0.145210
1300.8409,0.154230
1302.7046,0.164401
1304.5682,0.172978
1306.4319,0.174752
1308.2956,0.163111
1310.1592,0.138492
1312.0229,0.112649
1313.8866,0.096001
1315.7503,0.089474
1317.6139,0.088188
1319.4776,0.089087
1321.3413,0.091362
1323.2049,0.094627
1325.0686,0.098487
1326.9323,0.102479
1328.7959,0.106266
1330.6596,0.109826
1332.5233,0.113131
1334.3869,0.115814
1336.2506,0.118046
1338.1143,0.120592
1339.9780,0.122966
1341.8416,0.123332
1343.7053,0.123377
1345.5690,0.125233
1347.4326,0.128356
1349.2963,0.131797
1351.1600,0.134244
1353.0236,0.136051
1354.8873,0.139015
1356.7510,0.141729
1358.6146,0.141389
1360.4783,0.139765
1362.3420,0.141055
1364.2056,0.144020
1366.0693,0.146126
1367.9330,0.150138
1369.7967,0.155206
1371.6603,0.159522
1373.5240,0.166046
1375.3877,0.173401
1377.2513,0.178042
1379.1150,0.183986
1380.9787,0.191830
1382.8423,0.199851
1384.7060,0.208479
1386.5697,0.219941
1388.4333,0.232819
1390.2970,0.239449
1392.1607,0.242757
1394.0244,0.244425
1395.8880,0.239222
1397.7517,0.228337
1399.6154,0.215870
1401.4790,0.203935
1403.3427,0.193341
1405.2064,0.177976
1407.0700,0.156722
1408.9337,0.135425
1410.7974,0.116175
1412.6610,0.102437
1414.5247,0.095629
1416.3884,0.094417
1418.2520,0.099231
1420.1157,0.108387
1421.9794,0.111728
1423.8431,0.106935
1425.7067,0.093844
1427.5704,0.081335
1429.4341,0.074565
1431.2977,0.072426
1433.1614,0.072500
1435.0251,0.074491
1436.8887,0.079322
1438.7524,0.082100
1440.6161,0.082925
1442.4797,0.085070
1444.3434,0.087314
1446.2071,0.089657
1448.0707,0.091628
1449.9344,0.090226
1451.7981,0.086638
1453.6618,0.084258
1455.5254,0.085756
1457.3891,0.090469
1459.2528,0.087565
1461.1164,0.082969
1462.9801,0.081859
1464.8438,0.082827
1466.7074,0.082054
1468.5711,0.079670
1470.4348,0.078892
1472.2984,0.080981
1474.1621,0.083132
1476.0258,0.082911
1477.8895,0.082646
1479.7531,0.082567
1481.6168,0.083598
1483.4805,0.084214
1485.3441,0.084445
1487.2078,0.085949
1489.0715,0.088926
1490.9351,0.090970
1492.7988,0.089995
1494.6625,0.089848
1496.5261,0.093406
1498.3898,0.096784
1500.2535,0.096901
1502.1171,0.095720
1503.9808,0.095186
1505.8445,0.099645
1507.7082,0.110228
1509.5718,0.108997
1511.4355,0.107459
1513.2992,0.108009
1515.1628,0.109358
1517.0265,0.112126
1518.8902,0.113736
1520.7538,0.116065
1522.6175,0.120637
1524.4812,0.120683
1526.3448,0.122110
1528.2085,0.123765
1530.0722,0.123624
1531.9359,0.125208
1533.7995,0.129563
1535.6632,0.129919
1537.5269,0.129015
1539.3905,0.134836
1541.2542,0.145247
1543.1179,0.146528
1544.9815,0.148085
1546.8452,0.149272
1548.7089,0.151034
1550.5725,0.155050
1552.4362,0.157703
1554.2999,0.159648
1556.1635,0.162604
1558.0272,0.170591
1559.8909,0.188420
1561.7546,0.183786
1563.6182,0.181471
1565.4819,0.184699
1567.3456,0.188505
1569.2092,0.194508
1571.0729,0.200683
1572.9366,0.201101
1574.8002,0.205150
1576.6639,0.215435
1578.5276,0.219360
1580.3912,0.219350
1582.2549,0.222224
1584.1186,0.224988
1585.9822,0.226685
1587.8459,0.227141
1589.7096,0.226808
1591.5733,0.225529
1593.4369,0.223602
1595.3006,0.220856
1597.1643,0.217284
1599.0279,0.213236
1600.8916,0.209209
1602.7553,0.205115
1604.6189,0.201382
1606.4826,0.198075
1608.3463,0.194855
1610.2099,0.191340
1612.0736,0.186874
1613.9373,0.181853
1615.8010,0.176438
1617.6646,0.167096
1619.5283,0.156804
1621.3920,0.149794
1623.2556,0.142007
1625.1193,0.132610
1626.9830,0.123686
1628.8466,0.113192
1630.7103,0.102335
1632.5740,0.093682
1634.4376,0.086032
1636.3013,0.078267
1638.1650,0.073323
1640.0286,0.072049
1641.8923,0.071553
1643.7560,0.072576
1645.6197,0.075675
1647.4833,0.080761
1649.3470,0.082844
1651.2107,0.084981
1653.0743,0.093029
1654.9380,0.100473
1656.8017,0.099024
1658.6653,0.099188
1660.5290,0.099439
1662.3927,0.099027
1664.2563,0.096515
1666.1200,0.092967
1667.9837,0.089909
1669.8474,0.086680
1671.7110,0.083256
1673.5747,0.082177
1675.4384,0.083636
1677.3020,0.086074
1679.1657,0.088458
1681.0294,0.092908
1682.8930,0.098592
1684.7567,0.106835
1686.6204,0.108744
1688.4840,0.107182
1690.3477,0.105181
1692.2114,0.101508
1694.0750,0.097893
1695.9387,0.094042
1697.8024,0.088896
1699.6661,0.085111
1701.5297,0.077044
1703.3934,0.069620
1705.2571,0.061623
1707.1207,0.051292
1708.9844,0.044079
1710.8481,0.039063
1712.7117,0.035030
1714.5754,0.032462
1716.4391,0.030484
1718.3027,0.029339
1720.1664,0.028016
1722.0301,0.026833
1723.8937,0.025079
1725.7574,0.022880
1727.6211,0.020683
1729.4848,0.018974
1731.3484,0.017396
1733.2121,0.016455
1735.0758,0.015243
1736.9394,0.014438
1738.8031,0.014125
1740.6668,0.013902
1742.5304,0.013497
1744.3941,0.013277
1746.2578,0.012797
1748.1214,0.012483
1749.9851,0.012128
1751.8488,0.012023
1753.7125,0.011705
1755.5761,0.011619
1757.4398,0.011662
1759.3035,0.011564
1761.1671,0.011446
1763.0308,0.011484
1764.8945,0.011408
1766.7581,0.011497
1768.6218,0.011370
1770.4855,0.011327
1772.3491,0.011272
1774.2128,0.011167
1776.0765,0.010937
1777.9401,0.011009
1779.8038,0.011196
1781.6675,0.011442
1783.5312,0.011315
1785.3948,0.011418
1787.2585,0.011356
1789.1222,0.011308
1790.9858,0.011263
1792.8495,0.011376
1794.7132,0.011298
1796.5768,0.011476
1798.4405,0.011585
1800.3042,0.011812
1802.1678,0.011891
1804.0315,0.011939
1805.8952,0.011851
1807.7589,0.011966
1809.6225,0.012136
1811.4862,0.012068
1813.3499,0.011713
1815.2135,0.011614
1817.0772,0.011613
1818.9409,0.011767
1820.8045,0.011729
1822.6682,0.011809
1824.5319,0.011938
1826.3955,0.012114
1828.2592,0.011764
1830.1229,0.011539
1831.9865,0.011307
1833.8502,0.011401
1835.7139,0.011444
1837.5776,0.011458
1839.4412,0.011454
1841.3049,0.011740
1843.1686,0.011781
1845.0322,0.011817
1846.8959,0.011604
1848.7596,0.011814
1850.6232,0.012020
1852.4869,0.012052
1854.3506,0.011789
1856.2142,0.011797
1858.0779,0.011907
1859.9416,0.011926
1861.8052,0.011734
1863.6689,0.011709
1865.5326,0.011666
1867.3963,0.011880
1869.2599,0.011912
1871.1236,0.011716
1872.9873,0.011533
1874.8509,0.011838
1876.7146,0.011797
1878.5783,0.011780
1880.4419,0.012035
1882.3056,0.012393
1884.1693,0.012380
1886.0329,0.012343
1887.8966,0.012146
1889.7603,0.011951
1891.6240,0.011770
1893.4876,0.012147
1895.3513,0.012064
1897.2150,0.011927
1899.0786,0.011584
1900.9423,0.011726
1902.8060,0.011875
1904.6696,0.011889
1906.5333,0.011974
1908.3970,0.012221
1910.2606,0.012125
1912.1243,0.012123
1913.9880,0.011886
1915.8516,0.011819
1917.7153,0.012205
1919.5790,0.012653
1921.4427,0.012162
1923.3063,0.011943
1925.1700,0.011674
1927.0337,0.011556
1928.8973,0.011051
1930.7610,0.010935
1932.6247,0.011605
1934.4883,0.012106
1936.3520,0.011872
1938.2157,0.011118
1940.0793,0.010274
1941.9430,0.010762
1943.8067,0.010537
1945.6704,0.010690
1947.5340,0.010915
1949.3977,0.010396
1951.2614,0.010015
1953.1250,0.010607
1954.9887,0.009773
1956.8524,0.008912
1958.7160,0.008959
1960.5797,0.009471
1962.4434,0.007335
1964.3070,0.005427
1966.1707,0.004462
1968.0344,0.004746
1969.8980,0.004872
1971.7617,0.005476
1973.6254,0.005001
1975.4891,0.004421
1977.3527,0.003699
1979.2164,0.004882
1981.0801,0.006024
1982.9437,0.006996
1984.8074,0.006942
1986.6711,0.007723
1988.5347,0.007833
1990.3984,0.007781
1992.2621,0.006985
1994.1257,0.007347
1995.9894,0.008828
1997.8531,0.009096
1999.7167,0.008420
2001.5804,0.008769
2003.4441,0.008314
2005.3078,0.008566
2007.1714,0.008325
2009.0351,0.007721
2010.8988,0.006314
2012.7624,0.005683
2014.6261,0.005198
2016.4898,0.004679
2018.3534,0.004389
2020.2171,0.005320
2022.0808,0.004919
2023.9444,0.005284
2025.8081,0.005927
2027.6718,0.006111
2029.5355,0.005753
2031.3991,0.006325
2033.2628,0.006479
2035.1265,0.007078
2036.9901,0.007614
2038.8538,0.008031
2040.7175,0.007800
2042.5811,0.008463
2044.4448,0.008669
2046.3085,0.009114
2048.1721,0.008967
2050.0358,0.009917
2051.8995,0.011984
2053.7631,0.012746
2055.6268,0.011933
2057.4905,0.012405
2059.3542,0.013249
2061.2178,0.013439
2063.0815,0.013705
2064.9452,0.014278
2066.8088,0.014001
2068.6725,0.014560
2070.5362,0.014623
2072.3998,0.014565
2074.2635,0.014782
2076.1272,0.015320
2077.9908,0.015501
2079.8545,0.015527
2081.7182,0.015551
2083.5819,0.016207
2085.4455,0.016648
2087.3092,0.016537
2089.1729,0.016255
2091.0365,0.016033
2092.9002,0.015437
2094.7639,0.015906
2096.6275,0.016749
2098.4912,0.016734
2100.3549,0.016249
2102.2185,0.016288
2104.0822,0.015921
2105.9459,0.015776
2107.8095,0.016214
2109.6732,0.016665
2111.5369,0.016838
2113.4006,0.016764
2115.2642,0.016769
2117.1279,0.016861
2118.9916,0.016485
2120.8552,0.016572
2122.7189,0.016713
2124.5826,0.017023
2126.4462,0.016572
2128.3099,0.016219
2130.1736,0.015911
2132.0372,0.015037
2133.9009,0.014567
2135.7646,0.015465
2137.6282,0.014897
2139.4919,0.014462
2141.3556,0.014453
2143.2193,0.013618
2145.0829,0.011863
2146.9466,0.012423
2148.8103,0.013424
2150.6739,0.012315
2152.5376,0.009227
2154.4013,0.008144
2156.2649,0.007420
2158.1286,0.006843
2159.9923,0.006536
2161.8559,0.007966
2163.7196,0.008673
2165.5833,0.010633
2167.4470,0.012021
2169.3106,0.012943
2171.1743,0.011769
2173.0380,0.010458
2174.9016,0.010369
2176.7653,0.011728
2178.6290,0.011673
2180.4926,0.011954
2182.3563,0.012259
2184.2200,0.012129
2186.0836,0.011883
2187.9473,0.012081
2189.8110,0.012849
2191.6746,0.013243
2193.5383,0.013594
2195.4020,0.014582
2197.2657,0.014378
2199.1293,0.014387
2200.9930,0.014940
2202.8567,0.015175
2204.7203,0.014051
2206.5840,0.014475
2208.4477,0.015451
2210.3113,0.016377
2212.1750,0.017227
2214.0387,0.016838
2215.9023,0.015999
2217.7660,0.016224
2219.6297,0.016233
2221.4934,0.017194
2223.3570,0.017911
2225.2207,0.017865
2227.0844,0.017454
2228.9480,0.017462
2230.8117,0.017069
2232.6754,0.017553
2234.5390,0.018717
2236.4027,0.018795
2238.2664,0.018272
2240.1300,0.018695
2241.9937,0.019537
2243.8574,0.020124
2245.7210,0.019653
2247.5847,0.019700
2249.4484,0.020010
2251.3121,0.020131
2253.1757,0.020050
2255.0394,0.019858
2256.9031,0.020258
2258.7667,0.021147
2260.6304,0.021193
2262.4941,0.021510
2264.3577,0.021639
2266.2214,0.021587
2268.0851,0.022007
2269.9487,0.022604
2271.8124,0.023022
2273.6761,0.023559
2275.5397,0.023941
2277.4034,0.024039
2279.2671,0.024005
2281.1308,0.024319
2282.9944,0.024426
2284.8581,0.024269
2286.7218,0.025034
2288.5854,0.025656
2290.4491,0.025350
2292.3128,0.025383
2294.1764,0.025615
2296.0401,0.025479
2297.9038,0.025293
2299.7674,0.025150
2301.6311,0.025458
2303.4948,0.025739
2305.3585,0.025909
2307.2221,0.026035
2309.0858,0.025907
2310.9495,0.025901
2312.8131,0.025733
2314.6768,0.025467
2316.5405,0.025628
2318.4041,0.025834
2320.2678,0.025919
2322.1315,0.026067
2323.9951,0.025941
2325.8588,0.025377
2327.7225,0.024783
2329.5861,0.024476
2331.4498,0.024463
2333.3135,0.024767
2335.1772,0.024830
2337.0408,0.024616
2338.9045,0.024857
2340.7682,0.025378
2342.6318,0.025549
2344.4955,0.025590
2346.3592,0.025230
2348.2228,0.024754
2350.0865,0.024462
2351.9502,0.024494
2353.8138,0.024274
2355.6775,0.024175
2357.5412,0.024300
2359.4049,0.024088
2361.2685,0.023960
2363.1322,0.024083
2364.9959,0.024692
2366.8595,0.025487
2368.7232,0.025885
2370.5869,0.026109
2372.4505,0.026037
2374.3142,0.026341
2376.1779,0.026676
2378.0415,0.026839
2379.9052,0.026803
2381.7689,0.026845
2383.6325,0.026869
2385.4962,0.026966
2387.3599,0.027042
2389.2236,0.027118
2391.0872,0.027114
2392.9509,0.026869
2394.8146,0.026974
2396.6782,0.027335
2398.5419,0.027171
2400.4056,0.027062
2402.2692,0.027352
2404.1329,0.027247
2405.9966,0.027239
2407.8602,0.027573
2409.7239,0.027544
2411.5876,0.027348
2413.4512,0.027505
2415.3149,0.027690
2417.1786,0.027607
2419.0423,0.027823
2420.9059,0.027956
2422.7696,0.028197
2424.6333,0.028275
2426.4969,0.028155
2428.3606,0.028061
2430.2243,0.028042
2432.0879,0.028382
2433.9516,0.028396
2435.8153,0.028305
2437.6789,0.028582
2439.5426,0.028788
2441.4063,0.028630
2443.2700,0.028075
2445.1336,0.028000
2446.9973,0.028599
2448.8610,0.028473
2450.7246,0.028407
2452.5883,0.028647
2454.4520,0.028233
2456.3156,0.028129
2458.1793,0.028504
2460.0430,0.028533
2461.9066,0.028156
2463.7703,0.028160
2465.6340,0.028181
2467.4976,0.028181
2469.3613,0.028385
2471.2250,0.028841
2473.0887,0.029021
2474.9523,0.028476
2476.8160,0.028284
2478.6797,0.028639
2480.5433,0.028922
2482.4070,0.029120
2484.2707,0.029016
2486.1343,0.028941
2487.9980,0.028775
2489.8617,0.028988
2491.7253,0.029391
2493.5890,0.029535
2495.4527,0.029724
2497.3164,0.030074
2499.1800,0.030100
2501.0437,0.029845
2502.9074,0.029459
2504.7710,0.029485
2506.6347,0.029560
2508.4984,0.029887
2510.3620,0.030423
2512.2257,0.030407
2514.0894,0.030342
2515.9530,0.030376
2517.8167,0.030665
2519.6804,0.030664
2521.5440,0.030346
2523.4077,0.030763
2525.2714,0.031110
2527.1351,0.031026
